#Wave		#Intensity
750.175598	4270.870117
750.125549	4251.278809
750.075500	4261.746582
750.025452	4247.030762
749.975342	4327.428223
749.925293	4312.705566
749.875244	4146.985352
749.825134	4196.603516
749.775085	4304.907715
749.724976	4125.298340
749.674927	4186.072266
749.624817	4210.503418
749.574707	4243.306641
749.524658	4287.270508
749.474548	4144.119629
749.424438	4188.085449
749.374390	4273.909180
749.324280	4315.046387
749.274170	4177.568848
749.224060	4307.993164
749.174011	4237.515625
749.123901	4217.267578
749.073730	4269.533691
749.023682	4399.852051
748.973572	4242.985840
748.923401	4434.584473
748.873352	4269.404785
748.823181	4249.171387
748.773071	4398.882324
748.723022	4367.491699
748.672852	4322.187500
748.622803	4251.837891
748.572632	4334.630859
748.522522	4358.941895
748.472351	4391.593262
748.422241	4304.584473
748.372131	4348.361816
748.322021	4155.689453
748.271851	4257.880859
748.221741	4343.353027
748.171570	4489.959473
748.121460	4380.784180
748.071289	4352.243652
748.021179	4373.729980
747.971008	4300.747559
747.920837	4311.123535
747.870728	4393.706055
747.820557	4365.187012
747.770386	4292.255371
747.720276	4186.038086
747.670105	4418.457031
747.619934	4273.404785
747.569763	4397.525391
747.519653	4258.073730
747.469482	4482.000488
747.419312	4292.667480
747.369141	4297.478516
747.318970	4232.985840
747.268799	4259.978027
747.218628	4514.194824
747.168457	4377.659668
747.118286	4177.457031
747.068115	4331.847168
747.017944	4320.029297
746.967712	4324.827637
746.917542	4390.527344
746.867371	4392.543945
746.817139	4391.792480
746.767029	4407.642578
746.716797	4285.166504
746.666626	4455.921387
746.616394	4258.811035
746.566223	4307.852051
746.516052	4279.469727
746.465820	4372.714844
746.415649	4330.513184
746.365417	4357.402832
746.315186	4298.642090
746.265015	4389.057617
746.214783	4349.642578
746.164551	4401.361328
746.114319	4494.472656
746.064148	4281.163086
746.013916	4335.625977
745.963745	4287.975586
745.913513	4323.106445
745.863281	4220.306641
745.813049	4396.089355
745.762817	4417.395996
745.712585	4367.014648
745.662354	4338.701660
745.612122	4277.326660
745.561951	4246.283203
745.511658	4410.859863
745.461487	4275.129395
745.411194	4343.250000
745.360962	4279.172363
745.310730	4424.357910
745.260437	4453.879395
745.210205	4389.814941
745.159973	4185.432617
745.109741	4366.300781
745.059509	4228.011719
745.009216	4351.053223
744.958923	4320.058594
744.908691	4407.299805
744.858398	4401.046387
744.808228	4469.003906
744.757935	4435.262207
744.707642	4396.036621
744.657410	4354.077148
744.607117	4268.187012
744.556885	4404.760742
744.506592	4395.769043
744.456299	4400.505859
744.406006	4311.920898
744.355774	4473.091309
744.305481	4340.624023
744.255249	4378.285645
744.204895	4344.621582
744.154602	4349.360840
744.104309	4433.613281
744.054077	4356.093750
744.003784	4349.864746
743.953430	4395.706543
743.903198	4277.133301
743.852905	4380.501465
743.802551	4418.096680
743.752258	4337.919922
743.701965	4367.295410
743.651733	4407.610840
743.601379	4417.803223
743.551086	4397.888184
743.500793	4416.287598
743.450500	4470.245117
743.400146	4526.919434
743.349854	4351.113770
743.299561	4282.007812
743.249207	4355.088379
743.198853	4384.408203
743.148560	4416.451172
743.098267	4546.852539
743.047913	4354.831055
742.997559	4463.345703
742.947266	4517.200684
742.896912	4393.548340
742.846619	4368.222656
742.796265	4411.147461
742.745972	4492.266113
742.695557	4398.717773
742.645264	4327.027832
742.594910	4348.107422
742.544556	4407.361816
742.494202	4357.521484
742.443909	4337.688477
742.393494	4443.254395
742.343201	4494.274902
742.292847	4319.104004
742.242432	4522.701172
742.192078	4426.582520
742.141785	4567.448242
742.091431	4495.862793
742.041016	4462.418457
741.990723	4475.263184
741.940308	4463.607422
741.889954	4462.840332
741.839600	4527.372070
741.789185	4668.050293
741.738831	4327.268066
741.688477	4484.248047
741.638062	4483.477539
741.587769	4477.270020
741.537292	4433.012695
741.486938	4557.256348
741.436584	4453.225586
741.386169	4384.545898
741.335754	4508.732910
741.285400	4603.004883
741.234985	4327.981445
741.184631	4587.849121
741.134277	4597.916992
741.083862	4456.010742
741.033447	4550.209961
740.983093	4457.190918
740.932617	4437.437988
740.882202	4520.744141
740.831848	4571.483887
740.781433	4375.507812
740.731018	4556.358887
740.680603	4411.943359
740.630188	4508.729004
740.579834	4556.717285
740.529358	4545.099121
740.478943	4606.604980
740.428528	4532.704590
740.378113	4613.141602
740.327698	4493.250000
740.277283	4527.658691
740.226868	4394.293457
740.176392	4588.324707
740.125977	4598.354492
740.075562	4513.725586
740.025146	4523.764648
739.974670	4547.317383
739.924255	4527.613281
739.873779	4464.674805
739.823364	4488.225098
739.772949	4546.889160
739.722473	4438.058594
739.672058	4607.440430
739.621582	4436.530762
739.571167	4554.558105
739.520691	4567.270508
739.470276	4547.591797
739.419800	4557.602539
739.369324	4456.994141
739.318848	4515.570801
739.268433	4501.308105
739.217896	4551.767090
739.167480	4599.512695
739.117004	4388.462402
739.066589	4428.133789
739.016113	4508.211426
738.965576	4650.229004
738.915161	4509.352051
738.864685	4452.016113
738.814209	4413.549316
738.763733	4571.638672
738.713257	4659.683594
738.662720	4543.148926
738.612244	4545.057129
738.561768	4514.678223
738.511292	4473.549316
738.460754	4650.291016
738.410278	4636.043945
738.359802	4613.735840
738.309326	4548.423828
738.258850	4477.758789
738.208313	4600.601074
738.157837	4610.555176
738.107361	4550.660645
738.056824	4450.499023
738.006287	4584.002441
737.955811	4556.362305
737.905273	4646.849121
737.854736	4597.735352
737.804260	4623.778320
737.753784	4478.093262
737.703247	4606.087891
737.652710	4658.937012
737.602173	4566.955078
737.551697	4563.485840
737.501160	4613.633789
737.450623	4618.198730
737.400085	4563.804688
737.349609	4608.567383
737.299072	4739.040039
737.248535	4537.336914
737.197998	4678.488281
737.147461	4431.346680
737.096924	4556.405273
737.046387	4748.335938
736.995850	4616.384277
736.945312	4607.560547
736.894775	4537.208984
736.844177	4571.198242
736.793640	4677.381836
736.743042	4719.355957
736.692566	4600.912109
736.641968	4739.110352
736.591431	4529.839355
736.540833	4614.561523
736.490295	4587.049316
736.439758	4631.666016
736.389221	4534.723633
736.338623	4816.978027
736.288086	4594.561035
736.237488	4596.436523
736.186890	4587.636719
736.136353	4570.834473
736.085815	4634.073242
736.035217	4657.279785
735.984619	4619.138184
735.934082	4485.016113
735.883423	4686.858887
735.832886	4648.731445
735.782288	4663.918457
735.731689	4628.472656
735.681152	4656.979004
735.630554	4616.218262
735.579895	4671.349121
735.529358	4763.739746
735.478760	4704.345215
735.428162	4711.517578
735.377563	4612.230957
735.326965	4693.923340
735.276367	4661.186035
735.225769	4748.161621
735.175110	4670.213379
735.124512	4730.565430
735.073914	4649.988281
735.023315	4654.500488
734.972717	4698.877441
734.922058	4796.384277
734.871521	4715.850098
734.820862	4669.876953
734.770264	4727.499023
734.719604	4795.722656
734.669006	4699.313965
734.618408	4727.701172
734.567749	4665.839844
734.517090	4930.393066
734.466492	4735.860840
734.415833	4772.179199
734.365173	4617.524414
734.314575	4916.375488
734.263916	4729.933105
734.213257	4832.498047
734.162659	4656.736328
734.112000	4724.828613
734.061401	4827.340332
734.010742	4670.213379
733.960022	4685.296387
733.909424	4591.802246
733.858826	4937.848145
733.808105	4690.805664
733.757446	4708.520996
733.706848	4792.386230
733.656189	4696.307617
733.605469	4714.012207
733.554810	4752.869141
733.504150	4715.024414
733.453491	4843.762695
733.402832	4747.757812
733.352173	4712.575684
733.301453	4701.189453
733.250793	4615.826660
733.200134	4694.277832
733.149475	4785.907715
733.098755	4692.651855
733.048096	4781.609863
732.997437	4691.026367
732.946716	4848.578125
732.896057	4863.571777
732.845398	4786.212891
732.794678	4790.660156
732.744019	4832.031250
732.693298	4773.177246
732.642639	4788.170410
732.591919	4821.611328
732.541199	4678.445312
732.490540	4904.269531
732.439819	4855.992676
732.389099	4810.366699
732.338379	4680.471191
732.287720	4771.831055
732.236938	4865.791992
732.186279	4899.171387
732.135559	4716.708008
732.084839	4736.943359
732.034119	4849.262695
731.983398	4822.114746
731.932739	4879.144531
731.881958	4788.885254
731.831238	4835.383301
731.780518	4787.224609
731.729797	4844.220215
731.679077	4822.355957
731.628357	4821.519531
731.577576	4765.514648
731.526855	4801.460938
731.476135	4892.543945
731.425354	4954.712402
731.374634	4801.587891
731.323914	4714.136719
731.273193	4920.642090
731.222412	4720.372559
731.171692	4911.064453
731.120911	4773.817383
731.070190	4772.988770
731.019470	4622.703125
730.968689	4844.737793
730.917908	4864.866211
730.867188	4801.125000
730.816406	4768.848633
730.765686	4718.245117
730.714905	5008.172363
730.664124	4813.505859
730.613342	4807.433105
730.562622	4806.598633
730.511841	4795.293945
730.461060	4875.590332
730.410278	4937.542480
730.359558	4915.755859
730.308777	4857.356934
730.257996	4780.671387
730.207214	4821.677734
730.156433	4833.912109
730.105591	4833.072754
730.054871	4740.763184
730.004089	4993.398438
729.953308	4898.479980
729.902527	4834.939453
729.851685	4810.595215
729.800903	4937.706055
729.750122	4678.388184
729.699280	4922.939453
729.648499	4796.813477
729.597717	4858.604492
729.546936	4941.244629
729.496094	4825.614746
729.445312	4720.456543
729.394470	4826.544922
729.343689	4875.240723
729.292908	4895.246094
729.242065	4795.360840
729.191284	4789.315918
729.140442	4788.482910
729.089600	4928.310547
729.038757	4752.961426
728.987976	4785.985840
728.937195	4845.033203
728.886292	4812.955078
728.835449	4924.027832
728.784668	4884.140137
728.733826	4966.543457
728.682983	4872.036621
728.632202	4949.211426
728.581299	4857.340332
728.530457	4986.487305
728.479675	4793.265625
728.428772	4872.998535
728.377991	4963.097656
728.327148	4912.871582
728.276306	4784.735840
728.225403	5025.436035
728.174561	5053.125000
728.123718	4841.951660
728.072876	4799.576660
728.022034	4951.865234
727.971191	4958.788086
727.920288	4921.603516
727.869446	4887.025391
727.818604	4982.134766
727.767761	4849.021484
727.716858	4902.622070
727.666016	5033.968750
727.615112	5012.358398
727.564270	4827.506836
727.513428	5057.248047
727.462524	4950.162598
727.411621	4889.733398
727.360779	5033.891113
727.309875	5004.535156
727.258972	5026.960938
727.208130	5002.792480
727.157227	4913.940918
727.106323	5078.665527
727.055481	5031.219727
727.004578	5133.794922
726.953674	4977.750000
726.902832	5064.786133
726.851868	4901.052734
726.801025	4920.874512
726.750122	5168.085449
726.699219	4921.743652
726.648315	5109.455078
726.597412	4974.265137
726.546509	5089.599121
726.495605	4941.549805
726.444702	5082.662598
726.393799	4924.342285
726.342896	4938.966309
726.291931	4987.125488
726.241028	5159.085449
726.190125	4972.491211
726.139221	5007.725586
726.088318	5073.885254
726.037354	5073.000977
725.986450	4948.406250
725.935547	4947.543457
725.884583	5047.160156
725.833618	5025.672363
725.782715	5084.032227
725.731812	4956.968262
725.680847	5025.617676
725.629883	5009.296387
725.578979	5095.928223
725.528076	4971.523438
725.477112	5094.150879
725.426147	5100.979004
725.375183	5020.359863
725.324219	5024.626953
725.273315	5095.738770
725.222351	5056.291016
725.171448	5106.811035
725.120422	5069.944336
725.069519	5210.366699
725.018555	5006.524902
724.967590	5175.159668
724.916626	5012.480957
724.865662	4998.768555
724.814697	5205.820801
724.763733	5168.980957
724.712769	4919.168945
724.661804	5113.297852
724.610840	5138.057129
724.559875	5060.218262
724.508911	5105.491699
724.457886	5043.067871
724.406921	5121.652344
724.355957	5230.964355
724.304993	5096.801270
724.254028	5154.838379
724.203003	5182.115234
724.152039	4932.778809
724.101013	5075.316406
724.050049	4997.622070
723.999023	5140.098145
723.948059	5123.844238
723.897034	5105.036621
723.846069	5078.560059
723.795044	5197.899414
723.744080	4931.003418
723.693054	5119.369141
723.642029	5075.011230
723.591064	5097.130371
723.540039	5083.460449
723.489075	5069.795410
723.438049	5010.146484
723.386963	5221.290039
723.335999	5072.245117
723.284973	5056.037109
723.233948	5037.281738
723.182922	5130.849121
723.131897	4997.236816
723.080933	5095.882324
723.029846	5276.135254
722.978882	5091.549316
722.927795	5149.318848
722.876770	5003.069336
722.825745	5297.940918
722.774719	5072.693848
722.723694	5122.779785
722.672668	5104.045898
722.621643	5187.229004
722.570557	5109.902344
722.519531	5101.368164
722.468506	5003.711426
722.417419	5206.513672
722.366394	5167.419922
722.315369	5214.872559
722.264343	5145.254395
722.213257	5205.414551
722.162170	5118.016602
722.111145	5183.246582
722.060120	5395.938965
722.009033	5082.278320
721.958008	5137.312012
721.906921	5194.867676
721.855835	5160.924316
721.804810	5271.808594
721.753723	5181.979004
721.702637	4949.955078
721.651611	5172.546387
721.600464	5202.106934
721.549438	5117.428711
721.498352	5159.677734
721.447266	5082.648926
721.396179	5211.149414
721.345093	5141.747559
721.294006	5239.758301
721.242920	5297.162598
721.191895	5052.846191
721.140747	5211.656738
721.089661	5208.208984
721.038635	5121.142090
720.987488	5234.252930
720.936401	5119.347656
720.885315	5184.298828
720.834229	5178.326172
720.783142	5230.585449
720.731995	5201.824219
720.680908	5142.703125
720.629761	5265.791992
720.578674	5398.957520
720.527527	5279.123047
720.476440	5139.098145
720.425354	5284.858398
720.374207	5069.035156
720.323120	5252.672363
720.272034	5264.388184
720.220886	5177.551758
720.169800	5232.225098
720.118652	5254.041504
720.067566	5245.543457
720.016418	5267.349121
719.965271	5251.277344
719.914185	5202.396484
719.862976	5196.436523
719.811890	5205.618164
719.760742	5300.574707
719.709595	5317.301758
719.658447	5291.148926
719.607300	5043.108398
719.556213	5274.166016
719.505066	5200.141113
719.453918	5282.395996
719.402771	5306.666992
719.351624	5439.260742
719.300476	5254.426758
719.249329	5271.133789
719.198120	5287.834473
719.147034	5291.941406
719.095886	5346.389648
719.044678	5368.101074
718.993530	5269.024902
718.942383	5275.647461
718.891235	5450.796875
718.840027	5419.660645
718.788879	5257.782227
718.737732	5221.662598
718.686584	5313.748535
718.635376	5247.473633
718.584167	5231.475586
718.533020	5383.805664
718.481812	5219.590820
718.430664	5268.901855
718.379456	5300.618652
718.328308	5352.408203
718.277100	5369.038574
718.225952	5363.075684
718.174744	5364.642578
718.123535	5333.595215
718.072388	5277.475586
718.021179	5276.547852
717.969971	5390.962402
717.918762	5349.903320
717.867615	5439.198242
717.816406	5435.736328
717.765198	5484.894043
717.713989	5453.867676
717.662781	5385.279785
717.611572	5366.802734
717.560364	5395.905762
717.509155	5492.592285
717.457947	5429.051270
717.406738	5425.593750
717.355530	5389.609863
717.304321	5363.645020
717.253113	5322.681641
717.201904	5336.750488
717.150635	5410.823730
717.099426	5272.375000
717.048218	5373.927246
716.997009	5452.952148
716.945740	5387.028809
716.894531	5408.564453
716.843323	5649.894043
716.792114	5396.672363
716.740784	5383.238770
716.689575	5482.148438
716.638367	5318.944824
716.587158	5313.017578
716.535889	5469.274414
716.484619	5488.269043
716.433411	5370.074707
716.382141	5451.424316
716.330872	5467.918457
716.279663	5384.689941
716.228394	5373.771973
716.177185	5504.903809
716.125854	5441.645020
716.074646	5375.916504
716.023376	5270.359863
715.972107	5339.159668
715.920837	5298.382324
715.869629	5514.027344
715.818298	5555.368652
715.767090	5298.071777
715.715820	5476.281250
715.664551	5328.545410
715.613281	5464.403320
715.562012	5431.112793
715.510681	5375.456543
715.459412	5446.600586
715.408142	5415.815430
715.356873	5437.226562
715.305603	5500.867676
715.254333	5425.374023
715.203003	5488.994629
715.151733	5346.480957
715.100403	5420.023438
715.049133	5438.927246
714.997864	5437.968750
714.946533	5531.308105
714.895264	5515.446777
714.843994	5380.519531
714.792664	5295.244141
714.741394	5346.385742
714.690063	5563.624512
714.638794	5666.756836
714.587463	5574.054688
714.536194	5545.813965
714.484863	5529.970215
714.433594	5437.340820
714.382263	5488.392578
714.330933	5606.285645
714.279602	5357.713379
714.228271	5626.586914
714.176941	5499.371094
714.125671	5671.618164
714.074341	5430.630859
714.023010	5662.196289
713.971680	5495.491699
713.920349	5583.541992
713.869019	5533.109863
713.817749	5618.650391
713.766357	5560.814941
713.715027	5418.984375
713.663696	5581.087891
713.612366	5634.446289
713.560974	5472.919434
713.509705	5541.093750
713.458313	5648.745117
713.406982	5462.616211
713.355652	5449.312012
713.304321	5702.507812
713.252930	5565.809570
713.201599	5419.292969
713.150269	5462.728027
713.098938	5619.575195
713.047546	5416.422363
712.996216	5669.354004
712.944824	5626.456543
712.893494	5549.076660
712.842102	5565.341797
712.790710	5470.757324
712.739380	5580.615234
712.688049	5587.016113
712.636658	5586.029297
712.585266	5683.500488
712.533875	5500.380859
712.482544	5622.437988
712.431152	5508.277832
712.379761	5561.417969
712.328430	5523.545898
712.277039	5650.429688
712.225647	5705.974609
712.174255	5621.395020
712.122864	5625.316406
712.071472	5484.266602
712.020081	5574.194336
711.968689	5568.296387
711.917297	5736.762207
711.865906	5603.157715
711.814514	5575.163086
711.763123	5760.719238
711.711731	5602.640137
711.660339	5719.423828
711.608948	5725.771973
711.557495	5749.287109
711.506104	5647.724609
711.454712	5744.801270
711.403259	5729.076172
711.351868	5676.591309
711.300476	5692.741211
711.249084	5779.939941
711.197632	5565.790527
711.146240	5799.938477
711.094788	5715.650879
711.043335	5523.661621
710.991943	5684.251953
710.940552	5710.169434
710.889099	5797.255371
710.837708	5749.742188
710.786255	5665.551270
710.734802	5781.948730
710.683411	5634.201172
710.631958	5735.892090
710.580566	5637.095215
710.529053	5848.733887
710.477661	5676.641602
710.426208	5609.669434
710.374817	5823.642578
710.323364	5724.916504
710.271912	5880.186523
710.220398	5688.708008
710.169006	5680.376953
710.117554	5659.845703
710.066101	5768.652832
710.014648	5731.034180
709.963196	5583.658203
709.911682	5755.831543
709.860291	5637.765137
709.808838	5726.973633
709.757324	5660.143555
709.705872	5934.542480
709.654419	5663.011230
709.602966	5757.023926
709.551453	5687.798828
709.500000	5849.966309
709.448547	5717.437988
709.397095	5711.555664
709.345581	5810.343750
709.294067	5660.855957
709.242676	5669.585938
709.191101	5838.881348
709.139648	5735.683594
709.088196	5829.515137
709.036682	5799.302246
708.985168	5844.465820
708.933716	5768.077148
708.882202	5796.217773
708.830750	5817.058105
708.779236	5993.374023
708.727783	5856.287598
708.676270	5894.105957
708.624756	5885.775879
708.573242	5739.069824
708.521790	5791.451660
708.470215	5688.497070
708.418701	5638.959961
708.367249	5880.556152
708.315735	5760.661133
708.264221	5834.817383
708.212708	5799.836426
708.161194	5820.625488
708.109680	5885.035156
708.058167	5753.127930
708.006653	5912.021973
707.955139	5930.352539
707.903625	5905.078613
707.852112	5826.537109
707.800598	5740.759277
707.749084	5933.404785
707.697510	5879.102539
707.645935	5744.961426
707.594482	5831.043945
707.542908	5875.971191
707.491333	5855.578125
707.439819	5798.918945
707.388306	5947.792969
707.336792	5763.016113
707.285217	5783.744629
707.233704	5934.957520
707.182129	5844.507812
707.130615	5751.674805
707.079041	5827.939941
707.027466	5817.245117
706.975952	5801.725586
706.924377	5844.145508
706.872803	5910.685059
706.821289	5967.548340
706.769714	5833.791992
706.718201	5827.930664
706.666626	5906.483887
706.615051	5777.631348
706.563477	6109.313477
706.511902	5946.723633
706.460327	5883.004395
706.408813	5954.247559
706.357178	5933.915039
706.305603	6038.847168
706.254028	6052.223145
706.202454	5933.158203
706.150879	5987.475586
706.099304	5846.799805
706.047791	5756.713867
705.996155	5806.220703
705.944580	6052.984863
705.893005	6032.665039
705.841431	5896.915039
705.789795	6004.068848
705.738220	5897.221191
705.686646	6083.656738
705.635010	5984.041992
705.583435	6052.658203
705.531860	6075.604980
705.480225	6081.729492
705.428650	6003.798340
705.377014	5904.285156
705.325439	5905.634766
705.273865	6019.794922
705.222229	6013.923828
705.170654	6101.630371
705.119019	5949.409668
705.067383	6133.037109
705.015808	6103.167969
704.964172	6039.741699
704.912598	6014.693359
704.860962	5968.082520
704.809326	6070.064941
704.757690	6016.272461
704.706055	5984.058594
704.654480	6153.045898
704.602844	6190.264648
704.551208	6222.681641
704.499573	6092.306152
704.447937	5966.763672
704.396301	6078.170410
704.344666	6053.162109
704.293030	6241.061523
704.241394	6280.607910
704.189758	6023.622559
704.138123	6051.238770
704.086487	6102.750000
704.034851	6166.191895
703.983154	6215.273926
703.931519	5968.083984
703.879883	6107.954590
703.828247	6185.679199
703.776611	6089.061523
703.724915	6028.290039
703.673279	6168.048828
703.621582	6174.108887
703.569946	6115.739746
703.518311	6181.450195
703.466614	6049.155273
703.414978	6238.867188
703.363342	6182.912109
703.311646	6167.504883
703.259949	6059.142090
703.208313	6277.314453
703.156616	6254.749512
703.104919	6051.135254
703.053284	6252.518066
703.001587	6091.842773
702.949890	6145.520020
702.898254	6025.391602
702.846558	6250.436523
702.794922	6127.951660
702.743225	6093.546875
702.691528	6111.490723
702.639832	6127.049316
702.588135	6178.273438
702.536438	6196.191895
702.484741	6168.936035
702.433044	6281.921875
702.381348	6228.519531
702.329651	6398.477051
702.277954	6038.627441
702.226257	6305.937500
702.174561	5974.729004
702.122864	6246.702637
702.071167	6278.820801
702.019409	6246.844727
701.967712	6286.069824
701.916016	6152.083008
701.864319	6262.475098
701.812561	6249.497559
701.760864	6068.162109
701.709106	6297.052734
701.657471	6350.448242
701.605713	6185.781250
701.554016	6317.374023
701.502258	6309.137207
701.450500	6310.378418
701.398804	6250.041992
701.347107	6303.387207
701.295349	6205.192871
701.243652	6249.058105
701.191895	6318.940430
701.140198	6249.189941
701.088440	6257.536133
701.036682	6277.705566
700.984924	6172.524902
700.933228	6121.766113
700.881470	6227.056152
700.829712	6218.851562
700.777954	6286.273926
700.726196	6322.954590
700.674438	6229.689453
700.622681	6268.729004
700.570984	6265.246094
700.519226	6323.153809
700.467468	6215.790039
700.415710	6287.847168
700.363953	6277.282715
700.312134	6285.597168
700.260437	6312.780762
700.208679	6403.637207
700.156860	6565.206055
700.105103	6215.081055
700.053345	6294.118652
700.001526	6151.576660
699.949768	6265.943848
699.898010	6474.513672
699.846252	6463.931641
699.794434	6302.618164
699.742676	6315.618652
699.690918	6239.146973
699.639099	6428.701660
699.587341	6556.996094
699.535522	6304.036621
699.483826	6300.555176
699.432007	6346.472168
699.380249	6420.595215
699.328369	6358.307617
699.276611	6425.348145
699.224854	6445.352539
699.173035	6500.602051
699.121216	6208.067383
699.069458	6362.011230
699.017639	6351.475586
698.965820	6465.413574
698.914062	6440.774414
698.862183	6357.452148
698.810425	6454.896484
698.758606	6552.305664
698.706787	6370.458984
698.654968	6442.041992
698.603149	6436.196289
698.551331	6406.900879
698.499512	6558.158203
698.447693	6519.474121
698.395874	6415.174805
698.344055	6474.954102
698.292236	6431.618164
698.240417	6449.205566
698.188599	6494.893066
698.136780	6400.057129
698.084961	6560.462402
698.033142	6430.534668
697.981262	6377.889648
697.929443	6449.288574
697.877625	6434.093262
697.825745	6463.349121
697.773926	6546.387207
697.722046	6669.148438
697.670227	6438.828613
697.618408	6563.901855
697.566528	6420.157715
697.514709	6507.801270
697.462830	6476.261230
697.411011	6391.006348
697.359131	6343.149902
697.307312	6596.532227
697.255432	6504.297363
697.203613	6601.166504
697.151733	6599.981445
697.099854	6384.125488
697.047974	6308.324219
696.996094	6573.101074
696.944275	6508.953613
696.892395	6470.477051
696.840515	6534.591309
696.788696	6531.086426
696.736816	6429.704102
696.684875	6605.631348
696.633057	6436.712891
696.581177	6458.848145
696.529297	6543.852539
696.477417	6584.586914
696.425537	6515.893555
696.373596	6561.273438
696.321777	6683.430664
696.269897	6658.962402
696.218018	6613.566895
696.166138	6551.906250
696.114197	6706.532227
696.062317	6486.775391
696.010437	6659.954102
695.958496	6519.306152
695.906616	6413.564941
695.854736	6616.865723
695.802795	6422.873535
695.750916	6556.423828
695.699036	6645.806152
695.647095	6498.345703
695.595215	6573.778320
695.543335	6484.404297
695.491394	6550.530273
695.439453	6644.471680
695.387573	6471.627441
695.335632	6579.463867
695.283752	6527.268066
695.231812	6642.010254
695.179932	6587.502930
695.127991	6783.304688
695.076050	6580.498535
695.024170	6616.380859
694.972229	6483.164062
694.920288	6627.894531
694.868347	6615.124512
694.816406	6667.178711
694.764526	6707.640625
694.712585	6588.411133
694.660645	6577.970215
694.608643	6690.138672
694.556763	6568.663086
694.504761	6641.479980
694.452881	6575.545898
694.400940	6606.725098
694.348938	6686.428711
694.296997	6500.358398
694.245056	6797.230469
694.193115	6634.306641
694.141174	6556.895508
694.089233	6795.867188
694.037292	6582.238281
693.985352	6733.402344
693.933350	6614.485352
693.881409	6673.288574
693.829468	6582.109863
693.777466	6622.443848
693.725525	6674.294434
693.673584	6836.805664
693.621582	6644.223633
693.569641	6691.431152
693.517639	6747.839844
693.465698	6714.365234
693.413696	6779.963867
693.361755	6714.247559
693.309753	6678.493164
693.257751	6619.726562
693.205811	6604.720215
693.153809	6921.161621
693.101807	6770.331055
693.049866	6803.622559
692.997803	6963.426270
692.945862	6727.567871
692.893860	6747.051270
692.841858	6651.566895
692.789917	6776.799805
692.737915	6885.898926
692.685913	6703.118652
692.633911	6793.810547
692.581909	7084.318848
692.529907	6825.809570
692.477905	6921.021973
692.425903	6827.937988
692.373901	6851.956055
692.321899	6942.520996
692.269897	6833.420410
692.217896	6832.187012
692.165833	6911.236816
692.113831	6841.187500
692.061829	6883.518555
692.009827	6783.695801
691.957825	6777.886719
691.905762	6817.914062
691.853760	6890.005371
691.801697	6861.270020
691.749695	6724.891602
691.697693	6741.997559
691.645630	6994.933105
691.593628	6876.917480
691.541565	7054.205078
691.489563	6865.279785
691.437561	6925.815918
691.385498	6924.564453
691.333435	6930.174805
691.281433	6871.753418
691.229370	6822.498047
691.177368	6958.421875
691.125305	7005.160645
691.073242	7024.460449
691.021179	6856.407227
690.969177	6951.108398
690.917114	6853.928711
690.865051	7023.950195
690.812988	6949.622559
690.760986	6806.842285
690.708923	6709.757812
690.656860	7005.180664
690.604797	6944.597656
690.552734	6845.259277
690.500671	6891.913574
690.448608	6902.067871
690.396606	6900.819336
690.344482	7068.242676
690.292419	6868.697266
690.240356	6951.759766
690.188293	6900.383789
690.136169	6965.188477
690.084167	6831.846191
690.032043	6867.039551
689.979980	6993.278809
689.927856	6875.935059
689.875793	6911.100586
689.823730	7062.290039
689.771606	6954.095703
689.719543	6857.312012
689.667480	6926.564453
689.615417	6875.291992
689.563293	7008.164062
689.511230	7009.167969
689.459106	6917.005371
689.407043	7056.612793
689.354919	6928.129883
689.302856	7065.412598
689.250732	7025.531250
689.198669	6940.258789
689.146545	7156.909180
689.094421	7035.331543
689.042358	6934.219238
688.990234	6955.649414
688.938110	6972.535156
688.886047	6982.610840
688.833862	6901.986816
688.781738	7050.357910
688.729675	6774.823730
688.677551	7229.097168
688.625427	6942.300781
688.573303	6909.327637
688.521179	7080.210938
688.469055	6931.732910
688.416992	7077.644531
688.364807	6929.220215
688.312683	7081.868652
688.260559	6836.192383
688.208435	7058.938965
688.156311	6960.389648
688.104187	6988.529297
688.052063	6942.037109
687.999878	7017.646973
687.947754	7009.592773
687.895630	7049.001953
687.843445	7016.088867
687.791382	7032.889648
687.739197	6900.604004
687.687073	7064.214355
687.634949	6947.775879
687.582764	6937.485352
687.530640	6945.255371
687.478455	6937.224609
687.426331	7060.063965
687.374146	7040.735840
687.321960	7122.912109
687.269836	7096.812988
687.217651	7284.919434
687.165466	6988.285645
687.113342	7176.342773
687.061218	7075.887207
687.009033	7079.108887
686.956848	7014.749512
686.904663	7340.050781
686.852539	6962.662109
686.800354	6950.140625
686.748169	7020.911133
686.696045	7129.915527
686.643799	7067.865234
686.591614	7152.073730
686.539490	7263.243164
686.487305	7120.238770
686.435120	7029.002930
686.382935	7160.367188
686.330688	7215.259766
686.278564	7094.839844
686.226379	7378.910645
686.174133	7150.671387
686.121948	7158.356445
686.069763	7073.964355
686.017578	7191.679688
685.965393	7078.127930
685.913208	7182.332031
685.861023	7246.104492
685.808777	7137.091309
685.756592	7093.171875
685.704407	7304.953125
685.652161	7274.473145
685.599976	7080.335449
685.547729	7197.854004
685.495544	7250.334473
685.443359	7199.718262
685.391113	7178.245117
685.338867	7288.938965
685.286682	7186.832031
685.234497	7290.766113
685.182251	7175.262695
685.130005	7229.916016
685.077820	7105.513184
685.025574	7191.484863
684.973328	7353.487793
684.921082	7305.178223
684.868896	7292.666992
684.816650	7146.004883
684.764404	7220.711914
684.712219	7152.344727
684.659973	7238.195801
684.607727	7332.953125
684.555481	7311.513184
684.503235	7227.543457
684.451050	7400.407227
684.398804	7334.312500
684.346497	7183.415527
684.294312	7155.325195
684.242004	7263.363281
684.189758	7201.802246
684.137512	7213.874512
684.085266	7217.020996
684.033020	7191.178223
683.980774	7174.262695
683.928528	7313.383301
683.876282	7144.905762
683.824036	7237.187988
683.771729	7289.336426
683.719482	7156.592773
683.667175	7257.729492
683.614929	7118.359375
683.562683	7366.393066
683.510376	7276.020020
683.458130	7377.060059
683.405823	7197.719238
683.353577	7209.754883
683.301331	7255.147461
683.249023	7224.916016
683.196716	7401.465332
683.144470	7157.816895
683.092163	7178.736816
683.039917	7204.093262
682.987610	7464.941406
682.935364	7097.064941
682.883057	7386.708008
682.830750	7189.957520
682.778442	7270.789062
682.726196	7187.334473
682.673889	7139.418457
682.621643	7242.402832
682.569275	7278.795898
682.517029	7230.888184
682.464722	7369.281250
682.412415	7290.332520
682.360107	7430.880859
682.307800	7340.866699
682.255493	7339.526855
682.203186	7309.383789
682.150879	7188.427246
682.098572	7293.426758
682.046204	7358.527832
681.993958	7270.837891
681.941650	7307.142090
681.889343	7257.117188
681.837036	7202.684570
681.784668	7396.060547
681.732300	7312.866211
681.679993	7490.669434
681.627686	7358.841309
681.575378	7271.276367
681.523010	7311.945801
681.470703	7297.350098
681.418396	7254.035156
681.366089	7270.383301
681.313721	7339.735352
681.261414	7415.687012
681.209045	7330.429199
681.156738	7154.692871
681.104370	7374.100586
681.052002	7321.997559
680.999695	7433.183105
680.947388	7281.820312
680.895020	7428.260742
680.842651	7325.466309
680.790344	7273.417969
680.737976	7399.939453
680.685608	7290.594238
680.633240	7311.296387
680.580933	7329.787598
680.528564	7359.285156
680.476196	7278.655762
680.423828	7290.536133
680.371460	7500.547852
680.319092	7362.707031
680.266724	7345.955566
680.214355	7538.238281
680.161987	7407.064941
680.109619	7381.515625
680.057312	7397.757812
680.004883	7438.179199
679.952515	7331.300293
679.900146	7422.269531
679.847778	7306.642090
679.795410	7461.297852
679.742981	7462.128906
679.690674	7440.996582
679.638245	7415.479492
679.585876	7368.017090
679.533447	7491.787598
679.481140	7332.399414
679.428711	7410.050781
679.376282	7456.958984
679.323914	7352.500488
679.271545	7388.436035
679.219116	7536.184082
679.166748	7398.883301
679.114380	7388.760742
679.061951	7492.597656
679.009583	7289.647461
678.957153	7428.514160
678.904785	7506.002441
678.852356	7552.803711
678.799927	7468.220703
678.747559	7447.150879
678.695129	7391.069824
678.642700	7505.692871
678.590332	7497.753418
678.537903	7387.006836
678.485474	7390.026855
678.433044	7572.350586
678.380676	7450.719238
678.328186	7399.078613
678.275757	7375.867676
678.223389	7381.070312
678.170959	7484.580078
678.118530	7505.049805
678.066101	7499.305664
678.013672	7519.765137
677.961243	7459.443848
677.908813	7447.162598
677.856384	7317.044434
677.803955	7422.612305
677.751526	7484.512207
677.699097	7496.225098
677.646606	7451.237305
677.594177	7393.184082
677.541748	7422.344727
677.489319	7338.164551
677.436829	7482.812988
677.384399	7507.583496
677.331970	7432.145508
677.279480	7343.667969
677.227051	7501.272949
677.174622	7510.780762
677.122192	7585.584473
677.069702	7547.195801
677.017212	7519.700195
676.964783	7548.775391
676.912354	7462.562500
676.859863	7435.096680
676.807434	7505.480957
676.754944	7543.231934
676.702454	7459.255371
676.649963	7579.575684
676.597534	7508.659180
676.545044	7435.595703
676.492615	7579.743164
676.440125	7367.720215
676.387634	7418.471680
676.335205	7618.979004
676.282715	7476.512695
676.230225	7516.365723
676.177734	7478.104004
676.125244	7418.165039
676.072754	7564.270020
676.020264	7539.028809
675.967773	7563.657227
675.915283	7417.046875
675.862793	7394.012695
675.810303	7279.986816
675.757812	7493.108398
675.705322	7457.076660
675.652832	7486.021973
675.600342	7439.178711
675.547852	7435.645996
675.495361	7434.278320
675.442810	7320.389648
675.390320	7466.159180
675.337830	7443.154785
675.285278	7441.785645
675.232788	7308.517090
675.180298	7544.979980
675.127808	7521.976562
675.075256	7654.580078
675.022766	7374.442383
674.970276	7386.046875
674.917725	7462.443848
674.865234	7540.971680
674.812683	7481.288086
674.760132	7592.163574
674.707642	7517.383301
674.655090	7496.578125
674.602600	7460.677734
674.550049	7603.830566
674.497498	7570.079590
674.445007	7629.062500
674.392456	7580.227539
674.339905	7550.809570
674.287415	7486.919922
674.234863	7601.896484
674.182312	7570.335449
674.129822	7612.020020
674.077271	7683.837891
674.024658	7439.116699
673.972168	7715.450684
673.919617	7604.259277
673.867065	7605.009766
673.814514	7528.303711
673.761963	7417.207031
673.709412	7592.202637
673.656860	7440.277832
673.604309	7552.854980
673.551758	7566.509277
673.499146	7416.821289
673.446655	7505.702637
673.394104	7622.479980
673.341492	7621.074707
673.288940	7475.780762
673.236389	7598.939453
673.183777	7552.455078
673.131287	7527.451660
673.078674	7536.793457
673.026123	7619.082520
672.973511	7471.802246
672.920959	7605.547852
672.868408	7503.356445
672.815796	7632.757812
672.763245	7680.653320
672.710632	7460.625488
672.658081	7662.819336
672.605469	7453.587402
672.552917	7602.155762
672.500305	7729.251953
672.447754	7663.587402
672.395142	7597.946777
672.342529	7656.477539
672.289978	7610.122559
672.237366	7636.533203
672.184753	7575.223145
672.132141	7682.908203
672.079590	7598.087891
672.026978	7662.966309
671.974365	7674.377441
671.921814	7589.604492
671.869202	7628.804199
671.816589	7648.760254
671.763977	7457.231934
671.711365	7592.541504
671.658752	7642.386719
671.606140	7630.300293
671.553528	7562.719238
671.500916	7689.371094
671.448303	7758.364258
671.395691	7618.261719
671.343079	7631.784668
671.290466	7758.329102
671.237793	7503.164551
671.185181	7644.607910
671.132568	7417.266602
671.079956	7641.781738
671.027344	7442.222168
670.974731	7483.450195
670.922058	7614.115723
670.869446	7570.119141
670.816772	7805.041992
670.764160	7597.120117
670.711548	7463.764160
670.658875	7700.703125
670.606262	7512.062012
670.553589	7612.771484
670.500977	7579.463379
670.448303	7510.020020
670.395691	7570.281250
670.343018	7607.139648
670.290405	7561.104492
670.237732	7612.823242
670.185120	7405.355957
670.132446	7580.270508
670.079773	7564.002930
670.027161	7498.908691
669.974426	7720.408691
669.921814	7523.723145
669.869141	7590.232910
669.816528	7565.490723
669.763855	7589.543945
669.711121	7463.012695
669.658508	7584.612793
669.605835	7494.168457
669.553162	7427.073242
669.500488	7491.393066
669.447815	7636.203613
669.395142	7804.262695
669.342468	7631.256836
669.289795	7644.666504
669.237122	7624.194824
669.184448	7671.469727
669.131775	7629.835449
669.079102	7571.288086
669.026367	7580.463379
668.973694	7562.136230
668.921021	7622.066406
668.868347	7517.042969
668.815613	7629.811523
668.762939	7522.711426
668.710266	7614.302734
668.657593	7467.099121
668.604858	7507.965332
668.552185	7717.788086
668.499451	7543.192871
668.446777	7444.671387
668.394104	7677.608398
668.341370	7608.645996
668.288635	7617.785645
668.235962	7671.227539
668.183289	7726.758301
668.130554	7520.750488
668.077881	7607.917480
668.025146	7646.562500
667.972412	7731.564941
667.919739	7521.492676
667.867004	7553.810059
667.814270	7554.514648
667.761536	7593.131836
667.708801	7459.051758
667.656128	7672.427734
667.603394	7626.796387
667.550720	7745.349609
667.497925	7596.608887
667.445251	7565.743164
667.392517	7635.858887
667.339783	7567.140137
667.287048	7607.790039
667.234314	7541.204102
667.181580	7634.392578
667.128845	7527.895020
667.076050	7551.711426
667.023376	7709.969727
666.970642	7559.407715
666.917908	7595.804199
666.865112	7728.769531
666.812378	7681.150391
666.759644	7683.920410
666.706909	7703.477539
666.654114	7655.888184
666.601379	7631.390625
666.548645	7657.237305
666.495850	7536.290039
666.443115	7574.723145
666.390381	7510.431152
666.337646	7643.162109
666.284851	7601.929688
666.232117	7722.023926
666.179321	7710.115234
666.126587	7681.457031
666.073792	7721.904297
666.020996	7689.067383
665.968262	7547.405273
665.915527	7738.522949
665.862732	7605.272949
665.809937	7633.144043
665.757202	7721.656250
665.704407	7730.675293
665.651611	7551.529297
665.598877	7832.312988
665.546082	7615.595703
665.493286	7561.940918
665.440491	7669.167969
665.387756	7592.546387
665.334961	7818.762695
665.282166	7641.918945
665.229370	7661.372070
665.176575	7532.627930
665.123779	7752.425293
665.071045	7696.735352
665.018188	7547.195312
664.965393	7608.358887
664.912598	7696.606934
664.859802	7724.361328
664.807007	7731.260742
664.754211	7602.692383
664.701416	7711.711426
664.648621	7535.277832
664.595825	7531.791504
664.542969	7676.164551
664.490173	7666.405762
664.437378	7708.693848
664.384583	7599.026855
664.331787	7630.906250
664.278931	7689.821289
664.226135	7596.859375
664.173279	7553.847656
664.120483	7637.695312
664.067688	7600.928223
664.014832	7481.028809
663.962036	7702.007324
663.909180	7598.755859
663.856384	7508.007324
663.803528	7570.997070
663.750671	7733.645020
663.697876	7566.097168
663.645081	7558.458496
663.592224	7644.221191
663.539368	7572.240234
663.486572	7630.996094
663.433716	7606.754395
663.380859	7791.994629
663.328064	7614.284180
663.275208	7567.252441
663.222351	7559.622070
663.169556	7506.400391
663.116638	7556.800781
663.063782	7586.465332
663.010925	7719.683105
662.958130	7660.256836
662.905273	7673.320801
662.852417	7622.205078
662.799561	7819.477051
662.746704	7573.833496
662.693848	7711.040039
662.640991	7639.268555
662.588135	7774.342773
662.535278	7663.297363
662.482422	7746.630371
662.429504	7631.496094
662.376648	7431.672363
662.323792	7672.037109
662.270935	7759.436523
662.218079	7710.480469
662.165222	7692.519043
662.112305	7598.169434
662.059448	7633.907715
662.006531	7595.330078
661.953674	7711.533691
661.900818	7644.070801
661.847961	7638.516602
661.795044	7670.087402
661.742188	7555.242188
661.689270	7786.794434
661.636353	7562.724121
661.583496	7548.944824
661.530640	7580.500977
661.477722	7579.083496
661.424805	7466.441895
661.371948	7605.079590
661.319031	7737.488281
661.266174	7628.996094
661.213257	7720.186523
661.160339	7817.516113
661.107483	7715.241211
661.054565	7549.236816
661.001648	7660.938965
660.948730	7836.342285
660.895813	7621.066895
660.842957	7868.353027
660.790039	7784.676758
660.737122	7748.290039
660.684204	7615.363281
660.631287	7712.526367
660.578369	7624.833496
660.525452	7625.459473
660.472534	7802.624023
660.419617	7649.285645
660.366699	7512.420410
660.313782	7574.614258
660.260864	7657.296875
660.207947	7750.202148
660.154968	7613.419434
660.102112	7685.796875
660.049133	7790.941895
659.996216	7668.572266
659.943298	7736.799805
659.890320	7653.407715
659.837402	7617.155273
659.784485	7724.260742
659.731567	7530.356934
659.678589	7776.635742
659.625610	7644.193359
659.572693	7689.824707
659.519775	7669.970215
659.466858	7680.805664
659.413879	7814.342773
659.360962	7587.958496
659.307983	7684.664062
659.255005	7756.805664
659.202087	7765.568848
659.149109	7643.564453
659.096130	7560.418945
659.043213	7769.370605
658.990234	7549.415527
658.937256	7611.290527
658.884338	7630.275391
658.831360	7518.636230
658.778381	7621.291504
658.725464	7470.932617
658.672485	7691.862793
658.619507	7694.498047
658.566528	7599.261230
658.513550	7730.343750
658.460571	7747.236816
658.407654	7888.430664
658.354614	7723.954590
658.301697	7755.097656
658.248718	7727.165039
658.195740	7654.443848
658.142761	7549.175293
658.089783	7787.950684
658.036804	7623.676270
657.983826	7579.514648
657.930786	7500.784180
657.877808	7725.150391
657.824829	7609.816406
657.771851	7687.683594
657.718872	7653.713379
657.665833	7768.126953
657.612854	7632.549316
657.559875	7562.037109
657.506836	7623.587402
657.453857	7786.662109
657.400879	7710.067871
657.347839	7546.203613
657.294861	7739.646973
657.241882	7646.868164
657.188843	7560.210938
657.135864	7741.369141
657.082825	7648.641602
657.029846	7730.347168
656.976807	7653.875488
656.923767	7615.948242
656.870789	7744.228516
656.817749	7775.193848
656.764771	7429.312988
656.711731	7756.064941
656.658752	7736.378906
656.605652	7595.208984
656.552673	7543.168945
656.499634	7555.918457
656.446594	7659.729492
656.393616	7629.961914
656.340576	7598.182129
656.287537	7633.158203
656.234497	7611.500000
656.181458	7513.020996
656.128479	7533.842773
656.075378	7578.908691
656.022339	7767.424316
655.969299	7598.278809
655.916321	7754.400391
655.863220	7761.018555
655.810181	7553.604980
655.757141	7685.420898
655.704102	7621.403809
655.651062	7628.040527
655.598022	7691.167969
655.544983	7566.667480
655.491943	7732.642090
655.438843	7704.971191
655.385803	7582.553711
655.332764	7726.256836
655.279663	7783.246094
655.226624	7767.674805
655.173584	7582.884277
655.120483	7772.804688
655.067444	7735.090820
655.014404	7677.256836
654.961304	7712.044922
654.908264	7931.986328
654.855164	7723.224121
654.802124	7719.755859
654.749023	7722.323730
654.695984	7710.812012
654.642944	7844.081055
654.589844	7796.362305
654.536743	7792.881836
654.483704	7843.663086
654.430603	7637.238281
654.377563	7718.162598
654.324402	7604.229980
654.271362	7785.535645
654.218262	7653.562988
654.165161	7796.649902
654.112122	7672.751953
654.059021	7769.628418
654.005920	7802.268555
653.952820	7818.849121
653.899719	7683.005859
653.846619	7862.015137
653.793518	7692.134277
653.740417	7696.695312
653.687378	7619.091797
653.634216	7791.965820
653.581177	7742.417480
653.528015	7758.980957
653.474915	7733.486328
653.421875	7641.932617
653.368713	7732.567871
653.315613	7707.091309
653.262512	7471.525391
653.209412	7678.172852
653.156311	7726.727051
653.103149	7707.269531
653.050049	7745.801758
652.996948	7772.325195
652.943848	7704.900391
652.890686	7843.325195
652.837585	7594.101074
652.784485	7802.407715
652.731323	7737.023926
652.678223	7509.924316
652.625061	7845.898438
652.571960	7760.581543
652.518799	7860.893066
652.465698	7623.963867
652.412537	7702.318359
652.359436	7680.916992
652.306274	7721.341797
652.253174	7608.230469
652.200012	7652.639648
652.146912	7683.080566
652.093750	7755.354980
652.040588	7676.189453
651.987427	7614.980957
651.934326	7657.353516
651.881165	7723.603027
651.828003	7684.317383
651.774902	7706.748047
651.721680	7649.569336
651.668579	7735.665527
651.615417	7694.416504
651.562256	7698.926758
651.509094	7532.424316
651.455933	7880.907227
651.402832	7664.739258
651.349670	7732.846191
651.296448	7701.577148
651.243286	7634.560547
651.190125	7734.413086
651.136963	7580.037109
651.083801	7699.715820
651.030640	7841.185547
650.977478	7790.082031
650.924316	7588.186523
650.871155	7785.146973
650.817932	7761.852539
650.764771	7792.113770
650.711609	7701.408691
650.658447	7672.194824
650.605225	7835.255371
650.552063	7788.190918
650.498901	7963.055176
650.445740	7696.095215
650.392517	7694.636230
650.339355	7907.041992
650.286133	7790.711914
650.232971	7777.357910
650.179749	7670.991211
650.126587	7812.004883
650.073364	7707.649414
650.020203	7864.425781
649.966980	7698.793457
649.913757	7677.561035
649.860596	7624.707031
649.807373	7739.872559
649.754211	7754.212891
649.700989	7752.742188
649.647827	7660.405273
649.594543	7830.774414
649.541382	7813.491699
649.488159	7784.370117
649.434937	7830.265137
649.381714	7726.158203
649.328552	7724.691895
649.275330	7930.361816
649.222107	7759.234375
649.168884	7838.612305
649.115662	7785.862305
649.062439	7811.981445
649.009216	7747.430664
648.955994	7893.745605
648.902771	7768.129883
648.849548	7782.412598
648.796326	7721.854004
648.743103	7842.464355
648.689819	7898.064453
648.636658	7926.087402
648.583374	7843.899414
648.530151	7830.604004
648.476929	7703.221191
648.423706	7916.131836
648.370483	7635.403809
648.317200	7781.402344
648.263977	7791.716797
648.210693	7835.436523
648.157532	7881.104492
648.104248	7687.085449
648.051025	7748.476074
647.997742	7872.683105
647.944519	7987.025391
647.891296	7732.279297
647.838013	7978.100586
647.784729	7882.395020
647.731506	7871.086426
647.678284	7740.129883
647.625000	7691.590332
647.571716	7982.281250
647.518433	7880.782715
647.465210	7883.203613
647.411926	7758.246094
647.358704	7678.398926
647.305420	7845.403320
647.252197	7839.993164
647.198853	7930.534668
647.145630	7809.600586
647.092346	7741.562012
647.039124	7916.222168
646.985779	7760.138672
646.932556	7926.902344
646.879211	7737.625000
646.825989	7687.263184
646.772705	7840.258301
646.719421	7768.392578
646.666138	7677.009277
646.612854	7816.239258
646.559570	7814.750977
646.506287	7813.262207
646.453003	7764.903320
646.399719	7884.483398
646.346436	7935.690918
646.293091	7807.310059
646.239868	7844.851562
646.186523	7972.128418
646.133240	7754.080078
646.079956	7795.509766
646.026672	7794.024414
645.973328	7872.472168
645.920044	7989.874512
645.866760	7888.959961
645.813477	7967.343750
645.760132	7930.758789
645.706848	7929.246582
645.653564	7857.629395
645.600220	7871.707031
645.546875	7870.206055
645.493591	7749.983398
645.440308	7843.853516
645.386963	7813.174805
645.333618	7868.093262
645.280334	7921.045898
645.227051	7863.147461
645.173706	7931.631836
645.120422	8042.850586
645.067078	7922.775391
645.013733	7899.891602
644.960449	7857.590332
644.907104	7896.876465
644.853760	7883.718262
644.800415	7843.384766
644.747131	7857.416016
644.693787	8026.696777
644.640442	7928.148438
644.587097	7951.854004
644.533752	8010.462891
644.480408	8024.446777
644.427063	7968.626953
644.373779	7967.104980
644.320435	7934.573730
644.267090	7934.995605
644.213745	7912.168945
644.160400	8042.372559
644.107056	7971.118164
644.053650	8050.917480
644.000305	8043.571289
643.947021	7904.613281
643.893616	8108.227539
643.840271	8131.829590
643.786926	7913.623047
643.733582	8149.996094
643.680176	7920.266113
643.626831	8123.680664
643.573486	7965.561035
643.520142	8093.519043
643.466736	7976.041016
643.413391	8183.151367
643.360046	8023.208008
643.306702	8158.779785
643.253296	8184.249512
643.199890	8194.265625
643.146545	7937.943359
643.093201	8098.510742
643.039795	8035.226074
642.986450	8147.491211
642.933044	7960.797852
642.879700	8084.602051
642.826294	8052.210938
642.772949	7861.786621
642.719543	8037.567383
642.666138	8155.480957
642.612793	8026.785645
642.559387	8109.988770
642.506042	8073.776855
642.452576	7983.673340
642.399231	8070.685547
642.345825	8096.082031
642.292419	7988.708496
642.239075	8160.311035
642.185669	8060.658691
642.132263	8003.349121
642.078857	8067.184082
642.025452	8155.982910
641.972046	7994.906738
641.918640	8162.465820
641.865234	7972.632324
641.811829	8207.356445
641.758423	8257.634766
641.705017	8096.690918
641.651611	8110.496582
641.598206	8099.345703
641.544800	8011.442383
641.491394	8098.159668
641.437988	8136.888672
641.384521	7920.534668
641.331116	8087.750488
641.277710	8239.565430
641.224304	8241.819336
641.170898	8228.740234
641.117493	8071.968750
641.064026	8074.251953
641.010620	8120.583984
640.957214	8074.984375
640.903748	8146.186523
640.850342	8066.144531
640.796936	8146.888672
640.743469	8139.585449
640.690002	8130.371582
640.636597	8107.771973
640.583191	8207.567383
640.529724	8144.810547
640.476257	8166.186035
640.422852	8218.131836
640.369385	8063.688477
640.315979	8228.350586
640.262512	8077.783203
640.209045	8297.760742
640.155640	8124.325195
640.102173	8117.038086
640.048706	8002.870117
639.995300	8091.021484
639.941833	8184.862305
639.888367	8351.152344
639.834900	8326.662109
639.781494	8113.408203
639.727966	8174.761719
639.674561	8302.803711
639.621094	8272.623047
639.567627	8149.091797
639.514160	8210.389648
639.460693	8222.143555
639.407227	8357.667969
639.353760	8291.330078
639.300293	8175.526855
639.246826	8333.818359
639.193359	8280.840820
639.139893	8260.225586
639.086426	8363.249023
639.032959	8325.508789
638.979492	8150.889160
638.926025	8160.727539
638.872498	8284.595703
638.819031	8378.012695
638.765564	8338.404297
638.712097	8350.096680
638.658569	8291.516602
638.605103	8500.681641
638.551636	8337.684570
638.498108	8292.425781
638.444641	8290.830078
638.391113	8342.358398
638.337646	8234.525391
638.284180	8382.767578
638.230652	8274.967773
638.177185	8337.833008
638.123657	8449.955078
638.070129	8304.300781
638.016663	8346.281250
637.963196	8405.292969
637.909668	8456.707031
637.856140	8241.097656
637.802673	8311.454102
637.749146	8236.030273
637.695618	8385.846680
637.642090	8323.681641
637.588623	8445.045898
637.535156	8407.481445
637.481567	8247.010742
637.428101	8462.854492
637.374573	8340.241211
637.321045	8346.193359
637.267517	8482.527344
637.214050	8327.862305
637.160522	8343.257812
637.106995	8273.662109
637.053406	8260.738281
636.999939	8319.554688
636.946411	8346.262695
636.892883	8393.716797
636.839355	8443.040039
636.785828	8396.139648
636.732300	8407.721680
636.678711	8409.871094
636.625183	8470.462891
636.571655	8515.951172
636.518127	8421.966797
636.464600	8416.573242
636.411011	8341.480469
636.357544	8428.392578
636.304016	8460.662109
636.250427	8464.677734
636.196899	8444.220703
636.143372	8450.118164
636.089783	8318.655273
636.036255	8591.713867
635.982666	8418.893555
635.929138	8599.679688
635.875610	8374.279297
635.822083	8558.762695
635.768494	8517.641602
635.714905	8391.977539
635.661377	8412.901367
635.607788	8426.303711
635.554260	8420.919922
635.500671	8462.478516
635.447083	8427.052734
635.393555	8489.239258
635.339966	8457.575195
635.286438	8525.359375
635.232849	8452.430664
635.179260	8580.204102
635.125732	8539.168945
635.072144	8488.775391
635.018555	8616.465820
634.965027	8509.855469
634.911438	8558.798828
634.857849	8510.312500
634.804260	8441.242188
634.750671	8507.021484
634.697083	8582.136719
634.643494	8548.655273
634.589905	8674.262695
634.536316	8603.353516
634.482727	8536.213867
634.429138	8459.747070
634.375610	8624.541992
634.321960	8518.172852
634.268372	8533.348633
634.214783	8606.455078
634.161194	8464.646484
634.107605	8528.395508
634.054016	8610.797852
634.000427	8717.446289
633.946777	8760.570312
633.893188	8633.800781
633.839600	8551.874023
633.786011	8686.439453
633.732361	8537.368164
633.678772	8677.479492
633.625183	8590.011719
633.571594	8616.316406
633.517944	8573.634766
633.464355	8829.189453
633.410767	8773.437500
633.357117	8851.853516
633.303467	8786.803711
633.249878	8736.677734
633.196289	8738.708984
633.142639	8655.100586
633.089050	8726.016602
633.035400	8737.352539
632.981750	8560.759766
632.928162	8640.952148
632.874512	8735.993164
632.820862	8788.226562
632.767273	8771.649414
632.713623	8708.607422
632.659973	8623.287109
632.606384	8619.757812
632.552734	8736.981445
632.499084	8904.309570
632.445496	8846.872070
632.391785	8889.715820
632.338196	8756.194336
632.284546	8904.827148
632.230896	8817.742188
632.177307	8669.468750
632.123596	8806.901367
632.069946	8871.955078
632.016357	8935.128906
631.962646	8907.441406
631.909058	8868.644531
631.855408	8931.780273
631.801697	9135.697266
631.748047	9022.783203
631.694397	8806.201172
631.640747	8873.000977
631.587097	8976.800781
631.533447	9039.839844
631.479736	8856.730469
631.426086	8958.621094
631.372437	9080.819336
631.318787	8964.388672
631.265076	8912.721680
631.211426	8999.730469
631.157776	8988.740234
631.104126	9055.371094
631.050415	8894.710938
630.996765	8976.112305
630.943115	9092.573242
630.889465	9109.272461
630.835754	8876.721680
630.782043	8878.688477
630.728394	8984.002930
630.674744	9120.643555
630.621033	9113.335938
630.567322	8936.341797
630.513672	8960.421875
630.460022	8905.210938
630.406250	9038.044922
630.352600	9021.543945
630.298889	9139.561523
630.245239	9065.934570
630.191528	9064.170898
630.137817	9047.674805
630.084106	9091.945312
630.030457	9106.744141
629.976746	9023.990234
629.923035	9149.204102
629.869324	8989.202148
629.815674	8915.714844
629.761963	8943.404297
629.708252	9145.760742
629.654541	9123.758789
629.600830	9076.033203
629.547119	8982.383789
629.493469	9074.336914
629.439758	9158.905273
629.385986	9098.351562
629.332336	9226.950195
629.278564	9012.195312
629.224854	8970.058594
629.171143	9113.287109
629.117432	9063.807617
629.063721	8906.116211
629.009949	9109.796875
628.956299	9230.879883
628.902527	9084.247070
628.848816	9152.129883
628.795105	9212.656250
628.741394	8998.316406
628.687622	9102.814453
628.633911	9181.628906
628.580200	9163.358398
628.526428	9093.830078
628.472717	9157.955078
628.419006	9077.473633
628.365295	9139.746094
628.311523	9293.464844
628.257812	9055.703125
628.204041	9134.400391
628.150269	9119.820312
628.096558	9112.556641
628.042786	9129.055664
627.989075	8999.365234
627.935303	9112.706055
627.881592	9257.053711
627.827820	9127.412109
627.774048	9142.063477
627.720337	9156.708984
627.666565	9056.364258
627.612793	9007.152344
627.559082	9069.249023
627.505310	9005.459961
627.451538	9091.240234
627.397766	9215.277344
627.344055	9109.567383
627.290283	9005.719727
627.236511	8987.560547
627.182739	9075.080078
627.128967	9082.416016
627.075195	9067.893555
627.021423	9053.375977
626.967651	9195.427734
626.913940	9049.838867
626.860107	9062.628906
626.806335	9060.858398
626.752563	9062.726562
626.698792	8982.749023
626.645020	8913.713867
626.591248	9093.774414
626.537476	9099.267578
626.483704	9022.978516
626.429932	8908.563477
626.376099	9015.818359
626.322327	9072.175781
626.268555	8943.289062
626.214783	9081.336914
626.161011	9135.831055
626.107178	9019.709961
626.053406	9086.896484
625.999573	9061.535156
625.945862	9110.547852
625.892029	9072.498047
625.838196	9103.357422
625.784424	9103.389648
625.730652	9136.042969
625.676819	8878.763672
625.623047	9021.957031
625.569214	9020.191406
625.515381	8969.531250
625.461609	9036.577148
625.407837	9087.304688
625.354004	9087.335938
625.300232	8957.081055
625.246399	8978.846680
625.192566	8850.471680
625.138794	9210.428711
625.084961	9118.219727
625.031128	9136.319336
624.977295	9044.161133
624.923462	8886.984375
624.869690	9298.972656
624.815857	9136.387695
624.762024	9060.553711
624.708191	9091.279297
624.654419	9098.524414
624.600525	9098.545898
624.546753	9039.016602
624.492920	8977.707031
624.439087	8961.516602
624.385254	9024.685547
624.331421	9206.836914
624.277588	9008.527344
624.223755	8976.120117
624.169922	9185.203125
624.116089	9226.643555
624.062256	9021.279297
624.008423	9170.795898
623.954590	9201.409180
623.900696	9215.806641
623.846863	9170.799805
623.793030	9088.018555
623.739197	9163.603516
623.685303	9194.185547
623.631531	9088.065430
623.577637	9061.107422
623.523804	9143.828125
623.469971	8980.259766
623.416077	9177.978516
623.362244	9106.102539
623.308411	9062.997070
623.254517	9061.217773
623.200623	9237.215820
623.146790	9151.019531
623.092957	9115.117188
623.039062	9326.892578
622.985229	9195.870117
622.931396	9195.858398
622.877502	9244.273438
622.823608	9290.875000
622.769775	9177.889648
622.715881	9079.289062
622.661987	9193.998047
622.608154	9176.065430
622.554260	9242.338867
622.500366	9165.293945
622.446533	9217.216797
622.392639	9247.632812
622.338745	9193.903320
622.284851	9209.993164
622.231018	9150.921875
622.177124	9270.777344
622.123230	9261.799805
622.069336	9122.277344
622.015442	9127.634766
621.961548	9236.672852
621.907715	9018.595703
621.853821	9032.904297
621.799927	9134.749023
621.746033	9234.766602
621.692078	9113.296875
621.638184	9147.213867
621.584351	9077.577148
621.530457	9297.108398
621.476562	9100.772461
621.422668	9134.663086
621.368713	9195.296875
621.314819	9241.639648
621.260925	9257.651367
621.207031	9063.295898
621.153137	9325.300781
621.099243	9189.813477
621.045288	9216.510742
620.991394	9073.972656
620.937500	9244.938477
620.883606	9025.883789
620.829651	9186.109375
620.775757	9186.080078
620.721802	9276.806641
620.667908	9038.345703
620.614014	9141.516602
620.560059	9171.728516
620.506165	9153.917969
620.452209	9173.448242
620.398254	9345.830078
620.344360	9157.392578
620.290405	9198.229492
620.236511	9205.298828
620.182556	9208.811523
620.128662	9203.445312
620.074707	9176.775391
620.020813	9155.441406
619.966858	9268.988281
619.912903	9047.147461
619.859009	9268.879883
619.805054	9449.732422
619.751099	9314.875000
619.697144	9135.748047
619.643188	9263.341797
619.589294	9119.738281
619.535339	9404.978516
619.481384	9038.193359
619.427429	9206.440430
619.373535	9126.708008
619.319580	9450.669922
619.265625	9208.070312
619.211609	9254.036133
619.157654	9273.442383
619.103760	9273.380859
619.049805	9282.162109
618.995850	9177.764648
618.941833	9282.033203
618.887939	9154.696289
618.833923	9198.837891
618.779968	9219.991211
618.726013	9269.402344
618.672058	9322.325195
618.618103	9336.376953
618.564148	9207.412109
618.510193	9343.279297
618.456177	9272.603516
618.402222	9239.009766
618.348267	9189.550781
618.294250	9184.207031
618.240295	9164.756836
618.186340	9247.575195
618.132385	9314.495117
618.078369	9243.919922
618.024414	9035.928711
617.970459	9305.448242
617.916443	9183.834961
617.862427	9219.000000
617.808472	9285.843750
617.754517	9159.023438
617.700500	9202.970703
617.646545	9259.218750
617.592529	9269.702148
617.538513	9311.841797
617.484558	9074.347656
617.430542	9230.793945
617.376526	9265.882812
617.322571	9246.473633
617.268555	9147.998047
617.214539	9332.414062
617.160583	9218.150391
617.106567	9281.302734
617.052612	9175.873047
616.998535	9091.548828
616.944580	9233.668945
616.890564	9145.856445
616.836548	9147.553711
616.782532	9254.495117
616.728516	9200.049805
616.674500	9268.363281
616.620544	9271.786133
616.566528	9126.229492
616.512512	9226.056641
616.458496	9192.693359
616.404480	9220.649414
616.350464	9239.837891
616.296448	9099.681641
616.242371	9153.897461
616.188416	9213.341797
616.134338	9220.264648
616.080322	9199.192383
616.026306	9129.149414
615.972290	9218.280273
615.918274	9074.822266
615.864258	9081.763672
615.810181	9186.580078
615.756165	9120.101562
615.702148	9158.476562
615.648132	9271.947266
615.594055	9228.194336
615.540039	9119.851562
615.486023	9259.447266
615.431946	9121.468750
615.377930	9273.223633
615.323853	9222.532227
615.269836	9098.596680
615.215820	9180.502930
615.161743	9262.376953
615.107727	9096.666016
615.053650	9304.017578
614.999634	9291.714844
614.945557	9188.817383
614.891541	9275.832031
614.837463	9183.426758
614.783386	9235.582031
614.729370	9242.452148
614.675293	9216.248047
614.621277	9216.158203
614.567200	9294.361328
614.513123	9235.110352
614.459045	9188.056641
614.405029	9360.114258
614.350952	9161.805664
614.296875	9335.537109
614.242798	9302.401367
614.188721	9173.718750
614.134705	9211.848633
614.080627	9111.022461
614.026550	9286.325195
613.972412	9083.095703
613.918396	9183.697266
613.864319	9164.516602
613.810242	9428.154297
613.756165	9153.933594
613.702087	9252.705078
613.648010	9276.874023
613.593933	9264.626953
613.539856	9183.051758
613.485779	9155.230469
613.431641	9319.740234
613.377563	9187.965820
613.323486	9269.269531
613.269409	9220.672852
613.215332	9265.581055
613.161255	9287.968750
613.107117	9298.234375
613.053040	9171.808594
612.998962	9317.020508
612.944885	9271.927734
612.890747	9195.727539
612.836670	9083.250977
612.782593	9195.522461
612.728516	9191.962891
612.674377	9121.020508
612.620300	9169.299805
612.566162	9234.830078
612.512085	9232.990234
612.457947	9224.245117
612.403870	9179.255859
612.349731	9117.026367
612.295593	9249.789062
612.241516	9009.890625
612.187378	9068.458984
612.133301	9194.253906
612.079163	9187.249023
612.025085	9244.022461
611.970947	9264.582031
611.916870	9281.688477
611.862671	9221.267578
611.808594	9129.870117
611.754456	9298.522461
611.700317	9353.480469
611.646240	9294.813477
611.592102	9084.728516
611.537964	9105.283203
611.483826	9272.049805
611.429749	9165.286133
611.375610	9192.690430
611.321472	9287.130859
611.267334	9240.587891
611.213196	9300.610352
611.159058	9197.381836
611.104919	9188.673828
611.050781	9276.149414
610.996643	9389.346680
610.942505	9217.508789
610.888367	9306.640625
610.834167	9313.362305
610.780029	9093.599609
610.725952	8966.556641
610.671753	8988.777344
610.617615	9170.459961
610.563477	9182.343750
610.509338	9199.363281
610.455200	9272.929688
610.401062	9233.382812
610.346924	9077.364258
610.292725	9281.073242
610.238586	9234.697266
610.184387	9162.660156
610.130249	9184.791992
610.076050	9213.759766
610.021912	9292.333984
609.967773	9254.552734
609.913574	9211.655273
609.859436	9202.973633
609.805237	9204.552734
609.751099	9153.143555
609.696899	9270.937500
609.642761	9251.997070
609.588623	9277.478516
609.534424	9188.519531
609.480286	9268.644531
609.426086	9217.281250
609.371887	9304.194336
609.317749	9358.648438
609.263550	9457.441406
609.209351	9273.021484
609.155212	9322.331055
609.101013	9223.270508
609.046814	9214.605469
608.992676	9280.940430
608.938416	9287.602539
608.884277	9197.145508
608.830078	9304.325195
608.775879	9064.024414
608.721680	9234.190430
608.667542	9177.863281
608.613342	9336.022461
608.559082	9291.608398
608.504944	9199.571289
608.450745	9214.739258
608.396545	9287.725586
608.342346	9262.059570
608.288086	9159.899414
608.233948	9294.041016
608.179749	9280.283203
608.125549	9225.752930
608.071289	9120.283203
608.017151	9259.418945
607.962952	9198.131836
607.908752	9245.520508
607.854553	9357.387695
607.800354	9311.389648
607.746094	9233.172852
607.691895	9365.330078
607.637695	9239.645508
607.583435	9110.620117
607.529236	9300.360352
607.475037	9240.866211
607.420837	9313.575195
607.366577	9247.324219
607.312317	9255.631836
607.258179	9196.192383
607.203918	9209.585938
607.149719	9214.509766
607.095398	9236.355469
607.041199	9214.195312
606.987061	9210.653320
606.932800	9257.859375
606.878540	9240.779297
606.824280	9237.233398
606.770081	9220.163086
606.715881	9099.998047
606.661621	9159.004883
606.607422	9148.717773
606.553162	9248.230469
606.498901	9241.306641
606.444641	9092.550781
606.390442	9301.743164
606.336121	9239.113281
606.281921	9250.755859
606.227661	9253.958008
606.173462	9258.845703
606.119202	9098.457031
606.064880	9263.554688
606.010681	9271.806641
605.956482	9313.764648
605.902161	9279.875000
605.847961	9239.259766
605.793701	9200.343750
605.739441	9183.336914
605.685120	9348.181641
605.630920	9177.959961
605.576660	9330.957031
605.522400	9295.424805
605.468140	9037.831055
605.413818	9222.720703
605.359558	9269.634766
605.305359	9286.264648
605.251099	9314.655273
605.196777	9385.050781
605.142517	9322.667969
605.088318	9149.428711
605.033997	9320.594727
604.979675	9333.833008
604.925415	9325.237305
604.871216	9222.639648
604.816895	9157.005859
604.762573	9247.451172
604.708313	9215.391602
604.654053	9181.666016
604.599792	9428.010742
604.545532	9307.069336
604.491211	9216.349609
604.436951	9222.873047
604.382690	9380.200195
604.328369	9336.427734
604.274109	9364.695312
604.219788	9228.837891
604.165527	9138.241211
604.111206	9134.725586
604.056885	9194.807617
604.002625	9251.518555
603.948303	9278.092773
603.893982	9329.745117
603.839722	9035.218750
603.785400	9339.358398
603.731140	9312.401367
603.676819	9282.111328
603.622559	9226.770508
603.568237	9184.815430
603.513916	9331.613281
603.459595	9289.653320
603.405273	9251.048828
603.351013	9322.627930
603.296692	9480.959961
603.242432	9368.921875
603.188049	9146.826172
603.133728	9211.695312
603.079468	9244.854492
603.025146	9219.647461
602.970825	9267.791992
602.916504	9030.939453
602.862183	8985.794922
602.807861	9017.297852
602.753540	9130.397461
602.699219	9166.853516
602.644897	9173.326172
602.590576	9284.660156
602.536255	9147.985352
602.481934	9202.708008
602.427551	9154.270508
602.373291	9192.336914
602.318909	9228.724609
602.264587	9245.147461
602.210266	9278.183594
602.155945	9387.650391
602.101624	9229.573242
602.047241	9239.335938
601.992920	9197.608398
601.938599	9222.316406
601.884277	9293.498047
601.829895	9316.515625
601.775574	9279.782227
601.721191	9332.657227
601.666870	9310.864258
601.612549	9337.174805
601.558167	9292.173828
601.503845	9250.506836
601.449463	9381.232422
601.395081	9246.764648
601.340759	9349.270508
601.286377	9357.317383
601.232117	9285.866211
601.177734	9247.559570
601.123352	9258.931641
601.068970	9189.197266
601.014648	9289.933594
600.960266	9250.000000
600.905884	9332.487305
600.851562	9464.552734
600.797241	9272.491211
600.742798	9359.880859
600.688477	9285.262695
600.634094	9339.564453
600.579773	9205.504883
600.525391	9329.173828
600.471008	9337.192383
600.416626	9292.372070
600.362305	9295.441406
600.307861	9301.809570
600.253479	9293.324219
600.199158	9360.730469
600.144775	9343.988281
600.090393	9348.690430
600.035950	9417.691406
599.981628	9480.070312
599.927246	9227.638672
599.872864	9405.373047
599.818481	9367.221680
599.764099	9376.851562
599.709717	9386.477539
599.655273	9340.120117
599.600891	9341.517578
599.546509	9494.322266
599.492065	9466.069336
599.437683	9299.640625
599.383301	9430.978516
599.328918	9287.644531
599.274597	9341.658203
599.220154	9232.918945
599.165710	9364.161133
599.111328	9403.336914
599.056946	9319.291016
599.002563	9415.943359
598.948181	9417.315430
598.893738	9402.269531
598.839294	9219.804688
598.784973	9357.423828
598.730530	9321.067383
598.676086	9325.736328
598.621704	9397.645508
598.567322	9323.586914
598.512878	9251.198242
598.458435	9439.451172
598.404053	9406.397461
598.349609	9286.519531
598.295227	9268.251953
598.240784	9235.250977
598.186401	9341.442383
598.131958	9401.752930
598.077515	9430.939453
598.023132	9365.202148
597.968689	9238.955078
597.914246	9464.446289
597.859863	9491.958984
597.805420	9267.656250
597.750977	9262.501953
597.696533	9270.424805
597.642090	9446.654297
597.587708	9356.509766
597.533264	9470.579102
597.478821	9449.054688
597.424377	9336.104492
597.369934	9308.085938
597.315552	9291.501953
597.261047	9549.060547
597.206665	9290.983398
597.152161	9517.445312
597.097778	9210.554688
597.043335	9374.983398
596.988892	9353.512695
596.934387	9480.360352
596.879944	9475.170898
596.825500	9450.433594
596.771118	9464.795898
596.716614	9549.175781
596.662170	9586.304688
596.607727	9410.179688
596.553223	9569.378906
596.498840	9463.293945
596.444336	9550.838867
596.389893	9500.098633
596.335449	9387.586914
596.281006	9475.091797
596.226562	9406.516602
596.172058	9497.230469
596.117615	9509.917969
596.063171	9563.209961
596.008667	9410.215820
595.954224	9646.996094
595.899719	9563.854492
595.845276	9550.541992
595.790771	9482.059570
595.736328	9476.879883
595.681885	9617.695312
595.627380	9518.424805
595.572876	9428.921875
595.518433	9538.857422
595.463928	9660.093750
595.409485	9640.296875
595.354980	9437.429688
595.300537	9531.073242
595.245972	9644.111328
595.191528	9499.656250
595.137085	9589.990234
595.082581	9599.361328
595.028076	9544.001953
594.973572	9402.917969
594.919128	9643.625000
594.864563	9420.100586
594.810120	9565.310547
594.755615	9463.131836
594.701172	9488.673828
594.646667	9423.716797
594.592102	9626.963867
594.537659	9500.625977
594.483154	9560.049805
594.428650	9508.044922
594.374146	9478.660156
594.319641	9504.159180
594.265137	9624.845703
594.210632	9545.443359
594.156128	9453.169922
594.101624	9689.896484
594.047119	9662.119141
593.992615	9477.998047
593.938110	9469.613281
593.883606	9449.953125
593.829102	9591.391602
593.774597	9418.707031
593.720032	9545.600586
593.665527	9538.818359
593.611023	9478.920898
593.556519	9423.875000
593.502014	9489.521484
593.447449	9635.572266
593.392944	9480.812500
593.338440	9485.303711
593.283936	9359.575195
593.229370	9605.182617
593.174866	9574.290039
593.120361	9530.557617
593.065796	9568.763672
593.011292	9525.048828
592.956726	9645.126953
592.902222	9774.787109
592.847717	9690.930664
592.793152	9719.433594
592.738586	9678.938477
592.684082	9675.351562
592.629578	9565.922852
592.575012	9621.682617
592.520447	9677.419922
592.465942	9864.553711
592.411377	9591.732422
592.356812	9597.776367
592.302246	9683.902344
592.247742	9769.993164
592.193176	9868.855469
592.138672	9596.310547
592.084106	9642.354492
592.029541	9689.978516
591.974976	9815.969727
591.920471	9767.574219
591.865906	9607.261719
591.811340	9733.190430
591.756775	9811.114258
591.702209	9789.924805
591.647644	9853.423828
591.593140	9785.907227
591.538574	9636.963867
591.483948	9794.664062
591.429443	9733.584961
591.374878	9752.336914
591.320312	9782.250977
591.265747	9733.973633
591.211182	9735.165039
591.156616	9809.716797
591.102051	9839.592773
591.047485	9735.544922
590.992859	9685.730469
590.938293	9886.116211
590.883728	9600.499023
590.829224	9815.155273
590.774597	9706.439453
590.720093	9835.004883
590.665466	9826.616211
590.610901	9834.146484
590.556274	9852.810547
590.501709	9779.195312
590.447144	9774.003906
590.392578	9705.205078
590.337952	9638.023438
590.283386	9804.537109
590.228821	9734.183594
590.174194	9724.237305
590.119629	9649.161133
590.065002	9964.831055
590.010437	9716.650391
589.955811	9697.187500
589.901245	9634.875000
589.846680	9702.719727
589.792053	9635.670898
589.737488	9673.345703
589.682861	9720.520508
589.628296	9691.564453
589.573669	9940.052734
589.519043	9706.594727
589.464478	9791.753906
589.409851	9819.840820
589.355225	9835.244141
589.300598	9787.291016
589.246033	9810.609375
589.191467	9610.708008
589.136780	9825.561523
589.082214	9742.835938
589.027588	9794.619141
588.973022	9966.593750
588.918396	9894.958008
588.863708	9934.027344
588.809143	9906.688477
588.754517	9797.176758
588.699890	9842.561523
588.645264	9889.505859
588.590637	9840.083984
588.536072	9874.375977
588.481384	9824.975586
588.426819	10006.054688
588.372192	9828.815430
588.317566	9968.793945
588.262939	9903.637695
588.208252	9881.091797
588.153687	10074.584961
588.098999	9916.429688
588.044434	9979.008789
587.989807	10140.842773
587.935120	9968.588867
587.880493	9975.983398
587.825867	9999.124023
587.771240	10086.811523
587.716614	10024.908203
587.661926	10085.796875
587.607300	10063.257812
587.552673	10072.193359
587.498047	10232.128906
587.443359	10072.752930
587.388733	10061.238281
587.334106	10082.741211
587.279419	10097.947266
587.224792	10158.714844
587.170166	10202.175781
587.115479	10121.534180
587.060852	10230.939453
587.006165	10181.724609
586.951538	10093.286133
586.896912	10190.072266
586.842224	10249.160156
586.787537	10058.791992
586.732910	10268.450195
586.678284	10026.409180
586.623535	10105.860352
586.568909	10179.008789
586.514282	9993.550781
586.459595	10060.423828
586.404907	10152.332031
586.350281	10192.518555
586.295593	10051.051758
586.240906	10185.171875
586.186279	10237.845703
586.131592	10162.179688
586.076904	10252.384766
586.022217	10142.333008
585.967590	10234.067383
585.912903	10203.805664
585.858215	10118.842773
585.803528	10149.569336
585.748901	10233.411133
585.694214	10304.719727
585.639465	10263.537109
585.584839	10189.578125
585.530090	10317.055664
585.475464	10108.871094
585.420776	10217.583984
585.366089	10053.193359
585.311401	10122.871094
585.256714	10289.220703
585.202026	10159.221680
585.147339	10233.509766
585.092651	10243.859375
585.037964	10265.112305
584.983276	10277.007812
584.928528	10496.077148
584.873901	10551.526367
584.819153	10301.760742
584.764465	10413.270508
584.709778	10395.546875
584.655090	10331.146484
584.600342	10514.145508
584.545715	10546.186523
584.490967	10637.308594
584.436279	10386.328125
584.381531	10368.628906
584.326782	10380.465820
584.272095	10553.900391
584.217407	10575.013672
584.162720	10546.415039
584.108032	10559.755859
584.053223	10577.748047
583.998535	10735.436523
583.943848	10573.358398
583.889160	10814.767578
583.834412	10730.303711
583.779663	10723.423828
583.724976	10615.752930
583.670288	10771.682617
583.615540	10901.196289
583.560852	10726.917969
583.506104	10769.621094
583.451355	10897.503906
583.396667	10935.507812
583.341919	10826.396484
583.287231	10861.300781
583.232483	10933.336914
583.177734	11088.903320
583.122986	10964.376953
583.068237	11096.668945
583.013489	10979.924805
582.958801	11033.303711
582.904053	11035.647461
582.849304	11048.808594
582.794556	11029.514648
582.739868	11101.375000
582.685120	11072.809570
582.630371	11124.554688
582.575623	11148.487305
582.520874	11177.040039
582.466125	11290.458984
582.411377	11001.125000
582.356567	11267.250977
582.301880	11272.618164
582.247131	11253.311523
582.192383	11173.886719
582.137634	11236.297852
582.082886	11318.714844
582.028137	11274.760742
581.973389	11289.357422
581.918640	11299.328125
581.863892	11235.386719
581.809143	11245.362305
581.754333	11520.056641
581.699585	11560.743164
581.644836	11407.567383
581.590027	11302.137695
581.535278	11587.352539
581.480530	11423.502930
581.425781	11584.062500
581.370972	11397.228516
581.316223	11513.166016
581.261414	11315.668945
581.206665	11609.736328
581.151917	11361.626953
581.097168	11393.034180
581.042358	11416.752930
580.987549	11546.348633
580.932800	11427.335938
580.877991	11466.371094
580.823242	11505.388672
580.768494	11420.189453
580.713684	11626.296875
580.658936	11320.400391
580.604126	11382.398438
580.549377	11674.176758
580.494568	11452.705078
580.439758	11631.021484
580.385010	11477.016602
580.330200	11564.937500
580.275452	11527.323242
580.220642	11465.243164
580.165833	11485.796875
580.111084	11659.291016
580.056274	11603.335938
580.001465	11518.355469
579.946655	11615.305664
579.891907	11482.982422
579.837036	11630.317383
579.782288	11516.375977
579.727478	11761.385742
579.672668	11618.451172
579.617859	11732.046875
579.563110	11665.492188
579.508240	11612.697266
579.453491	11582.808594
579.398682	11601.743164
579.343872	11698.445312
579.289062	11650.259766
579.234192	11387.154297
579.179443	11648.438477
579.124573	11603.337891
579.069763	11651.185547
579.014954	11543.655273
578.960144	11373.734375
578.905396	11619.518555
578.850525	11545.547852
578.795776	11623.790039
578.740906	11478.335938
578.686096	11544.389648
578.631226	11701.666992
578.576416	11489.380859
578.521606	11482.416016
578.466797	11476.973633
578.411987	11378.836914
578.357117	11453.938477
578.302307	11486.477539
578.247498	11213.752930
578.192627	11417.899414
578.137817	11359.342773
578.083008	11311.432617
578.028137	11450.181641
577.973328	11516.051758
577.918457	11513.639648
577.863647	11467.251953
577.808838	11520.946289
577.753967	11391.206055
577.699097	11314.561523
577.644287	11406.130859
577.589417	11159.850586
577.534607	11398.322266
577.479797	11371.706055
577.424927	11317.850586
577.370056	11416.887695
577.315247	11363.043945
577.260376	11294.092773
577.205505	11402.146484
577.150696	11540.400391
577.095825	11243.142578
577.041016	11181.830078
576.986145	11363.870117
576.931274	11328.244141
576.876404	11407.446289
576.821533	11578.750000
576.766663	11301.485352
576.711853	11444.051758
576.656982	11334.479492
576.602112	11555.453125
576.547241	11418.743164
576.492371	11387.685547
576.437500	11631.128906
576.382629	11527.660156
576.327820	11603.633789
576.272949	11691.631836
576.218079	11514.374023
576.163208	11572.220703
576.108276	11622.510742
576.053467	11696.874023
575.998596	11573.964844
575.943665	11613.683594
575.888794	11552.547852
575.833984	11504.979492
575.779053	11486.013672
575.724182	11351.242188
575.669312	11502.240234
575.614441	11393.078125
575.559570	11592.102539
575.504700	11490.480469
575.449768	11534.642578
575.394897	11431.572266
575.339966	11468.216797
575.285095	11570.914062
575.230225	11473.903320
575.175354	11448.976562
575.120422	11334.024414
575.065552	11540.179688
575.010681	11533.251953
574.955750	11527.827148
574.900879	11597.370117
574.846008	11543.962891
574.791077	11355.694336
574.736206	11434.217773
574.681274	11442.297852
574.626404	11478.831055
574.571533	11501.872070
574.516602	11509.930664
574.461670	11435.660156
574.406738	11517.056641
574.351868	11553.532227
574.296997	11414.975586
574.242126	11542.684570
574.187195	11398.206055
574.132263	11434.673828
574.077332	11378.458984
574.022461	11383.533203
573.967529	11618.677734
573.912598	11408.610352
573.857666	11410.686523
573.802795	11406.789062
573.747803	11505.889648
573.692932	11260.202148
573.638062	11360.783203
573.583069	11406.125000
573.528137	11202.373047
573.473206	11420.701172
573.418335	11378.041016
573.363403	11353.283203
573.308472	11276.378906
573.253601	11303.798828
573.198669	11341.632812
573.143738	11276.691406
573.088806	11287.712891
573.033813	11254.070312
572.978943	11186.208984
572.924011	11041.000000
572.869080	11348.110352
572.814148	11284.732422
572.759155	11213.946289
572.704224	11348.359375
572.649292	11146.781250
572.594360	11266.290039
572.539429	11238.652344
572.484497	11167.947266
572.429565	11211.628906
572.374573	11243.413086
572.319641	11260.337891
572.264771	11398.961914
572.209717	11355.003906
572.154785	11144.899414
572.099915	11200.393555
572.044922	11152.053711
571.989990	11277.207031
571.934998	11071.741211
571.880066	11248.728516
571.825073	11130.775391
571.770142	11177.309570
571.715210	10991.289062
571.660217	11168.141602
571.605286	11001.447266
571.550354	11052.406250
571.495361	11016.032227
571.440430	11006.304688
571.385437	11169.650391
571.330505	11044.538086
571.275513	10966.792969
571.220520	11045.778320
571.165527	10973.976562
571.110657	11051.448242
571.055664	10948.649414
571.000732	11099.944336
570.945679	11014.898438
570.890747	10944.651367
570.835754	10933.478516
570.780762	10944.445312
570.725830	10921.471680
570.670837	10805.571289
570.615906	10770.836914
570.560913	10702.201172
570.505920	10605.583984
570.450928	10702.089844
570.395935	10708.664062
570.341003	10594.425781
570.285950	10773.357422
570.231018	10598.772461
570.176025	10624.501953
570.121033	10840.112305
570.066040	10658.263672
570.011047	10657.475586
569.956055	10506.634766
569.901062	10714.731445
569.846130	10612.466797
569.791077	10789.577148
569.736084	10750.542969
569.681091	10661.559570
569.626099	10634.321289
569.571106	10736.359375
569.516113	10537.288086
569.461060	10598.189453
569.406128	10675.212891
569.351074	10700.833984
569.296143	10494.598633
569.241150	10583.329102
569.186096	10566.416016
569.131104	10592.035156
569.076050	10563.396484
569.021118	10525.974609
568.966064	10512.016602
568.911072	10612.347656
568.856018	10498.763672
568.801025	10522.896484
568.746033	10631.944336
568.690979	10393.992188
568.635986	10397.638672
568.580994	10429.085938
568.526001	10301.051758
568.470947	10297.400391
568.415894	10407.816406
568.360901	10325.190430
568.305847	10407.778320
568.250854	10203.885742
568.195801	10176.876953
568.140808	10282.815430
568.085815	10289.392578
568.030762	10198.131836
567.975708	10391.590820
567.920715	10278.452148
567.865662	10169.738281
567.810608	10179.247070
567.755615	10131.864258
567.700562	10021.791016
567.645569	10124.637695
567.590515	10102.075195
567.535522	10054.746094
567.480469	10083.205078
567.425415	9952.861328
567.370361	9933.265625
567.315369	9999.591797
567.260315	10028.036133
567.205261	9916.734375
567.150208	9754.545898
567.095154	9899.417969
567.040100	9799.849609
566.985107	9818.123047
566.929993	9900.365234
566.875000	9867.728516
566.819946	9804.583984
566.764893	9873.696289
566.709839	9883.214844
566.654785	9838.988281
566.599670	9819.465820
566.544678	9798.499023
566.489624	9760.122070
566.434509	9792.872070
566.379517	9735.649414
566.324463	9835.116211
566.269409	9600.971680
566.214355	9700.424805
566.159241	9834.625977
566.104248	9784.699219
566.049133	9834.779297
565.994080	9680.562500
565.939026	9732.089844
565.883911	9676.432617
565.828857	9587.499023
565.773804	9597.034180
565.718750	9541.439453
565.663635	9526.380859
565.608582	9601.017578
565.553528	9494.835938
565.498413	9556.432617
565.443420	9703.295898
565.388306	9549.461914
565.333191	9423.149414
565.278137	9416.802734
565.223022	9567.901367
565.167969	9440.219727
565.112854	9433.872070
565.057800	9301.941406
565.002747	9265.318359
564.947632	9429.270508
564.892578	9330.603516
564.837524	9097.846680
564.782410	9309.312500
564.727295	9349.131836
564.672241	9362.988281
564.617126	9296.140625
564.562012	9223.557617
564.506958	9230.228516
564.451843	9140.407227
564.396729	9148.532227
564.341675	9107.708984
564.286560	9078.416992
564.231445	9190.147461
564.176392	9001.166992
564.121277	9026.568359
564.066162	9069.213867
564.011047	9035.645508
563.955994	9073.958008
563.900879	8819.097656
563.845703	8973.814453
563.790649	8894.327148
563.735535	8813.436523
563.680420	8871.854492
563.625305	8806.792969
563.570251	8826.435547
563.515076	8804.457031
563.460022	8887.211914
563.404907	8782.041016
563.349792	8816.009766
563.294617	8739.571289
563.239563	8767.799805
563.184387	8697.135742
563.129333	8733.956055
563.074219	8525.815430
563.019043	8624.236328
562.963928	8837.161133
562.908813	8750.807617
562.853699	8670.216797
562.798584	8676.943359
562.743408	8613.568359
562.688293	8691.817383
562.633240	8408.249023
562.578064	8526.538086
562.522949	8669.075195
562.467834	8650.067383
562.412659	8596.777344
562.357544	8603.503906
562.302368	8494.547852
562.247253	8538.416016
562.192139	8520.881836
562.137024	8501.926758
562.081909	8357.411133
562.026733	8529.663086
561.971558	8473.633789
561.916443	8413.348633
561.861328	8343.110352
561.806152	8425.416016
561.751038	8278.250000
561.695862	8430.347656
561.640747	8331.673828
561.585571	8386.850586
561.530457	8170.047852
561.475281	8361.894531
561.420105	8230.583984
561.364990	8234.507812
561.309814	8037.838867
561.254700	8081.625977
561.199524	8142.458008
561.144348	8032.658203
561.089233	8131.851562
561.034058	8006.468262
560.978882	7909.553711
560.923767	7988.821289
560.868591	7947.338379
560.813416	7938.530273
560.758240	7942.501465
560.703125	7919.504395
560.647949	7964.626953
560.592773	7618.180664
560.537598	7798.090820
560.482483	7843.208496
560.427307	7852.863281
560.372131	7759.040039
560.316895	7761.622070
560.261780	7839.293945
560.206604	7758.281738
560.151428	7739.617188
560.096252	7691.226074
560.041077	7637.192871
559.985901	7704.898438
559.930725	7612.679688
