#Wave		#Intensity
750.175598	81.163322
750.125549	95.157005
750.075500	137.114639
750.025452	148.282364
749.975342	184.622009
749.925293	78.311127
749.875244	92.279510
749.825134	61.509178
749.775085	83.861839
749.724976	106.206871
749.674927	103.394302
749.624817	89.406837
749.574707	86.598099
749.524658	78.204285
749.474548	106.116272
749.424438	122.850502
749.374390	111.663208
749.324280	92.106422
749.274170	58.603172
749.224060	92.074982
749.174011	83.690239
749.123901	52.994766
749.073730	64.140610
749.023682	75.282639
748.973572	66.906479
748.923401	52.958580
748.873352	83.604530
748.823181	89.162941
748.773071	94.719444
748.723022	89.132484
748.672852	91.902176
748.622803	72.395409
748.572632	50.111340
748.522522	77.937653
748.472351	55.660244
748.422241	86.258644
748.372131	91.808029
748.322021	89.010757
748.271851	88.995544
748.221741	69.515892
748.171570	83.404816
748.121460	83.390564
748.071289	72.259476
748.021179	94.477013
747.971008	52.786953
747.920837	55.555717
747.870728	55.546223
747.820557	66.644073
747.770386	119.383553
747.720276	58.293633
747.670105	77.711555
747.619934	97.122841
747.569763	63.812668
747.519653	88.767662
747.469482	80.431938
747.419312	74.872108
747.369141	94.267273
747.318970	94.251152
747.268799	94.235039
747.218628	74.820908
747.168457	83.120125
747.118286	116.348274
747.068115	85.861420
747.017944	91.385231
746.967712	88.600822
746.917542	83.049065
746.867371	63.660057
746.817139	63.649166
746.767029	55.337635
746.716797	58.094574
746.666626	66.382439
746.616394	116.149391
746.566223	118.894508
746.516052	124.403198
746.465820	63.572975
746.415649	71.852806
746.365417	93.945282
746.315186	74.590836
746.265015	71.815918
746.214783	69.041946
746.164551	74.552544
746.114319	102.147102
746.064148	93.848839
746.013916	88.313202
745.963745	68.982872
745.913513	82.765282
745.863281	113.093178
745.813049	91.010635
745.762817	93.752472
745.712585	74.437744
745.662354	77.181480
745.612122	85.436295
745.561951	115.732574
745.511658	71.631706
745.461487	104.674561
745.411194	85.377777
745.360962	77.102203
745.310730	74.335815
745.260437	38.537895
745.210205	85.319290
745.159973	90.808205
745.109741	96.295227
745.059509	93.527908
745.009216	57.757339
744.958923	52.247688
744.908691	76.983398
744.858398	82.468079
744.808228	60.466228
744.757935	98.927780
744.707642	60.445503
744.657410	74.170403
744.607117	60.424786
744.556885	79.637199
744.506592	98.843025
744.456299	98.826080
744.406006	82.340950
744.355774	71.349922
744.305481	76.825203
744.255249	79.555321
744.204895	90.512947
744.154602	98.724464
744.104309	65.805023
744.054077	112.397636
744.003784	95.932747
743.953430	82.213966
743.903198	84.939865
743.852905	63.009090
743.802551	115.040337
743.752258	79.418991
743.701965	90.357834
743.651733	95.817627
743.601379	95.801186
743.551086	109.468285
743.500793	62.933464
743.450500	79.337280
743.400146	87.529564
743.349854	62.901077
743.299561	87.499527
743.249207	62.879490
743.198853	60.135277
743.148560	103.852196
743.098267	114.764305
743.047913	68.300362
742.997559	60.094002
742.947266	84.663376
742.896912	95.571274
742.846619	106.475426
742.796265	109.186821
742.745972	100.980469
742.695557	68.218330
742.645264	62.750088
742.594910	87.289482
742.544556	79.092506
742.494202	76.352066
742.443909	84.518127
742.393494	65.422150
742.343201	100.841827
742.292847	68.124672
742.242432	87.184601
742.192078	68.101265
742.141785	59.918823
742.091431	73.524101
742.041016	78.956764
741.990723	62.610126
741.940308	84.373062
741.889954	48.982395
741.839600	84.344070
741.789185	70.728035
741.738831	78.875404
741.688477	92.458725
741.638062	78.848297
741.587769	67.960991
741.537292	84.257141
741.486938	67.937630
741.436584	92.379295
741.386169	97.796562
741.335754	81.483124
741.285400	84.184753
741.234985	76.024773
741.184631	78.726402
741.134277	86.855576
741.083862	108.550804
741.033447	89.539017
740.983093	70.533760
740.932617	89.508224
740.882202	94.916641
740.831848	48.805878
740.781433	121.993706
740.731018	86.736160
740.680603	75.881088
740.630188	92.125473
740.579834	102.946053
740.529358	75.841934
740.478943	64.996193
740.428528	83.938972
740.378113	83.924530
740.327698	78.496536
740.277283	62.245159
740.226868	73.057831
740.176392	105.509819
740.125977	59.508118
740.075562	97.360161
740.025146	59.487637
739.974670	59.477398
739.924255	83.794640
739.873779	97.293152
739.823364	102.680649
739.772949	83.751373
739.722473	89.139343
739.672058	81.021812
739.621582	67.506554
739.571167	86.393509
739.520691	83.679306
739.470276	105.255836
739.419800	99.840904
739.369324	86.334023
739.318848	72.831787
739.268433	89.001297
739.217896	70.110161
739.167480	86.274567
739.117004	53.912315
739.066589	88.939995
739.016113	94.314049
738.965576	94.297806
738.915161	83.506523
738.864685	83.492134
738.814209	86.170586
738.763733	83.463371
738.713257	83.448990
738.662720	102.274681
738.612244	69.965355
738.561768	78.024834
738.511292	94.151672
738.460754	77.997940
738.410278	83.362740
738.359802	61.839115
738.309326	61.828457
738.258850	86.007370
738.208313	75.243477
738.157837	67.170090
738.107361	107.453621
738.056824	77.890442
738.006287	64.449944
737.955811	88.603394
737.905273	93.957092
737.854736	67.100632
737.804260	115.393188
737.753784	75.126793
737.703247	88.527023
737.652710	91.193924
737.602173	85.814774
737.551697	93.843719
737.501160	77.742813
737.450623	88.450699
737.400085	61.636822
737.349609	61.626190
737.299072	93.762802
737.248535	112.495949
737.197998	88.374428
737.147461	50.873466
737.096924	64.250130
737.046387	74.945549
736.995850	90.989609
736.945312	82.946793
736.894775	74.906754
736.844177	82.918167
736.793640	77.555214
736.743042	61.498692
736.692566	85.548630
736.641968	69.496262
736.591431	66.811790
736.540833	77.488297
736.490295	101.518860
736.439758	96.159157
736.389221	56.083157
736.338623	58.743637
736.288086	88.100235
736.237488	69.400322
736.186890	96.076157
736.136353	80.049637
736.085815	80.035812
736.035217	98.693787
735.984619	72.007347
735.934082	93.326736
735.883423	79.980522
735.832886	90.628937
735.782288	63.962315
735.731689	111.914711
735.681152	87.917793
735.630554	77.247742
735.579895	98.540428
735.529358	103.848991
735.478760	79.870033
735.428162	71.870605
735.377563	74.519600
735.326965	103.777222
735.276367	87.796318
735.225769	90.441177
735.175110	77.127670
735.124512	85.091682
735.073914	77.101006
735.023315	82.404068
734.972717	69.101135
734.922058	77.061020
734.871521	100.959045
734.820862	90.316162
734.770264	84.988747
734.719604	66.385971
734.669006	87.614334
734.618408	114.144386
734.567749	92.892151
734.517090	100.836891
734.466492	90.206871
734.415833	58.359058
734.365173	116.697922
734.314575	95.463600
734.263916	98.098396
734.213257	84.827171
734.162659	90.113281
734.112000	71.548164
734.061401	68.886307
734.010742	95.364540
733.960022	63.565357
733.909424	60.906258
733.858826	66.190994
733.808105	100.592896
733.757446	84.695145
733.706848	87.326752
733.656189	68.790985
733.605469	100.523270
733.554810	124.309883
733.504150	87.266296
733.453491	84.607216
733.402832	84.592560
733.352173	68.719559
733.301453	92.491074
733.250793	68.695755
733.200134	84.533981
733.149475	89.801804
733.098755	95.067795
733.048096	87.130386
732.997437	73.916008
732.946716	68.624405
732.896057	87.085114
732.845398	81.793053
732.794678	105.521141
732.744019	87.039864
732.693298	102.847466
732.642639	79.099731
732.591919	105.448029
732.541199	86.979553
732.490540	89.599762
732.439819	76.410088
732.389099	100.106209
732.338379	86.919273
732.287720	84.270744
732.236938	115.852188
732.186279	76.343887
732.135559	78.962746
732.084839	73.685783
732.034119	78.935371
731.983398	84.183128
731.932739	89.429070
731.881958	68.375076
731.831238	81.509995
731.780518	86.753654
731.729797	78.853287
731.679077	86.723572
731.628357	99.846184
731.577576	60.422737
731.526855	89.305077
731.476135	91.915749
731.425354	60.391300
731.374634	81.382851
731.323914	73.494339
731.273193	65.608559
731.222412	73.468834
731.171692	76.079521
731.120911	78.689301
731.070190	83.920685
731.019470	65.551659
730.968689	91.756393
730.917908	91.740471
730.867188	81.241745
730.816406	91.708626
730.765686	89.072922
730.714905	44.528728
730.664124	70.709824
730.613342	73.315979
730.562622	78.539192
730.511841	68.055481
730.461060	107.299629
730.410278	78.498291
730.359558	83.716972
730.308777	75.855331
730.257996	83.687897
730.207214	99.362122
730.156433	112.416557
730.105591	67.960999
730.054871	60.108902
730.004089	73.163345
729.953308	83.600723
729.902527	101.870689
729.851685	88.794914
729.800903	83.557167
729.750122	91.374771
729.699280	73.087112
729.648499	80.903816
729.597717	93.936493
729.546936	86.093491
729.496094	106.946053
729.445312	112.143440
729.394470	93.871216
729.343689	96.461983
729.292908	83.412079
729.242065	91.216103
729.191284	70.354477
729.140442	88.579124
729.089600	83.354095
729.038757	98.965775
728.987976	85.929024
728.937195	98.931366
728.886292	80.693130
728.835449	78.076546
728.784668	98.879768
728.733826	85.854340
728.682983	75.434631
728.632202	67.619286
728.581299	72.808105
728.530457	72.795441
728.479675	93.577850
728.428772	70.171181
728.377991	85.749855
728.327148	75.342827
728.276306	93.512749
728.225403	72.719482
728.174561	75.303505
728.123718	85.675285
728.072876	90.851913
728.022034	98.622055
727.971191	77.845970
727.920288	75.238007
727.869446	77.818871
727.818604	64.837776
727.767761	75.198723
727.716858	90.741287
727.666016	69.988235
727.615112	85.526283
727.564270	64.781357
727.513428	108.813736
727.462524	80.300911
727.411621	106.185944
727.360779	85.451851
727.309875	54.368980
727.258972	82.833542
727.208130	87.995316
727.157227	95.742928
727.106323	54.331116
727.055481	56.908398
727.004578	72.416252
726.953674	80.161171
726.902832	77.561813
726.851868	100.812790
726.801025	93.041748
726.750122	56.848938
726.699219	85.258553
726.648315	85.243690
726.597412	100.724991
726.546509	72.302773
726.495605	98.108093
726.444702	92.928314
726.393799	85.169441
726.342896	67.091499
726.291931	79.979767
726.241028	103.181709
726.190125	92.847351
726.139221	105.724380
726.088318	69.611237
726.037354	82.487816
725.986450	69.586960
725.935547	64.421135
725.884583	92.750259
725.833618	115.917610
725.782715	79.840424
725.731812	84.976601
725.680847	100.409370
725.629883	74.650360
725.578979	56.621426
725.528076	82.344070
725.477112	87.475319
725.426147	108.038895
725.375183	100.304321
725.324219	90.000999
725.273315	71.988235
725.222351	61.693436
725.171448	77.103333
725.120422	110.495499
725.069519	95.060928
725.018555	82.200508
724.967590	89.891113
724.916626	61.628864
724.865662	84.724892
724.814697	97.544968
724.763733	100.094467
724.712769	82.114456
724.661804	123.150177
724.610840	92.346512
724.559875	84.636185
724.508911	84.621407
724.457886	89.734306
724.406921	43.577625
724.355957	69.199432
724.304993	56.374878
724.254028	87.109589
724.203003	94.779175
724.152039	87.079163
724.101013	81.942543
724.050049	81.928230
723.999023	115.191444
723.948059	97.255783
723.897034	71.649635
723.846069	86.987930
723.795044	74.182625
723.744080	99.745407
723.693054	89.499466
723.642029	86.927139
723.591064	86.911949
723.540039	97.119911
723.489075	79.215553
723.438049	94.531067
723.386963	68.970070
723.335999	109.822029
723.284973	66.392410
723.233948	79.146339
723.182922	58.711212
723.131897	68.909805
723.080933	104.622520
723.029846	89.296288
722.978882	71.424538
722.927795	86.714630
722.876770	91.799438
722.825745	81.585228
722.774719	63.727310
722.723694	86.653984
722.672668	112.120834
722.621643	84.075912
722.570557	71.324661
722.519531	94.233955
722.468506	112.042397
722.417419	84.017097
722.366394	68.729233
722.315369	89.077858
722.264343	96.696182
722.213257	91.590874
722.162170	58.506153
722.111145	76.299019
722.060120	76.285660
722.009033	91.526772
721.958008	96.594681
721.906921	88.953209
721.855835	99.101944
721.804810	94.003334
721.753723	83.826134
721.702637	81.271713
721.651611	83.796776
721.600464	99.015213
721.549438	71.075401
721.498352	73.600914
721.447266	91.350655
721.396179	73.575134
721.345093	53.269215
721.294006	63.404625
721.242920	93.822411
721.191895	78.594193
721.140747	98.859245
721.089661	101.376335
721.038635	83.620827
720.987488	103.874336
720.936401	98.789986
720.885315	98.772675
720.834229	65.836906
720.783142	101.269806
720.731995	98.720757
720.680908	83.518303
720.629761	129.051117
720.578674	86.019005
720.527527	53.120071
720.476440	63.227093
720.425354	126.432022
720.374207	60.676731
720.323120	65.721603
720.272034	80.873940
720.220886	65.698555
720.169800	78.319160
720.118652	93.461311
720.067566	80.817230
720.016418	73.227768
719.965271	88.362846
719.914185	58.056828
719.862976	80.760551
719.811890	98.409653
719.760742	93.346626
719.709595	58.016102
719.658447	93.313881
719.607300	93.297508
719.556213	68.070015
719.505066	90.744102
719.453918	88.207947
719.402771	95.751823
719.351624	80.618965
719.300476	88.161522
719.249329	73.035294
719.198120	80.576523
719.147034	98.185402
719.095886	72.996841
719.044678	85.567482
718.993530	88.068710
718.942383	75.474213
718.891235	88.037788
718.840027	75.447716
718.788879	75.434464
718.737732	87.991425
718.686584	103.057564
718.635376	95.499992
718.584167	92.970505
718.533020	65.319153
718.481812	80.378685
718.430664	85.387352
718.379456	82.861397
718.328308	77.825821
718.277100	80.322220
718.225952	95.365875
718.174744	75.275627
718.123535	62.718666
718.072388	75.249176
718.021179	95.298874
717.969971	60.178185
717.918762	77.716492
717.867615	72.689751
717.816406	120.292923
717.765198	105.237808
717.713989	70.146202
717.662781	87.667343
717.611572	117.704025
717.560364	80.124825
717.509155	55.076130
717.457947	87.605713
717.406738	82.585144
717.355530	70.059921
717.304321	62.542503
717.253113	117.559235
717.201904	77.525429
717.150635	72.511032
717.099426	77.498161
717.048218	92.481537
716.997009	99.962456
716.945740	114.936600
716.894531	47.465462
716.843323	102.407455
716.792114	74.919098
716.740784	77.402779
716.689575	89.871284
716.638367	84.863503
716.587158	109.804031
716.535889	82.338531
716.484619	99.786713
716.433411	67.344177
716.382141	119.701912
716.330872	102.227386
716.279663	77.280273
716.228394	97.206451
716.177185	74.761032
716.125854	87.205849
716.074646	87.190491
716.023376	74.721550
715.972107	54.786156
715.920837	79.674919
715.869629	99.576111
715.818298	114.492363
715.767090	79.632835
715.715820	74.642632
715.664551	84.580086
715.613281	106.950089
715.562012	84.550293
715.510681	87.021729
715.459412	74.576912
715.408142	86.991074
715.356873	84.490723
715.305603	67.083755
715.254333	69.556076
715.203003	104.315735
715.151733	101.814079
715.100403	96.830467
715.049133	57.095085
714.997864	96.796341
714.946533	71.964081
714.895264	81.875725
714.843994	89.303230
714.792664	99.208321
714.741394	84.312202
714.690063	74.380005
714.638794	99.155853
714.587463	86.746071
714.536194	76.818687
714.484863	66.894798
714.433594	66.883003
714.382263	74.301346
714.330933	111.432358
714.279602	84.178490
714.228271	81.688240
714.176941	111.373405
714.125671	69.286781
714.074341	76.696831
714.023010	98.946198
713.971680	89.035866
713.920349	108.802414
713.869019	84.059753
713.817749	66.741554
713.766357	106.273354
713.715027	84.015266
713.663696	76.588631
713.612366	91.396103
713.560974	118.546989
713.509705	91.363846
713.458313	91.347717
713.406982	91.331589
713.355652	120.931290
713.304321	88.831795
713.252930	86.348999
713.201599	66.600319
713.150269	108.514694
713.098938	78.905838
713.047546	69.030418
712.996216	113.387085
712.944824	69.006035
712.893494	83.778244
712.842102	96.081596
712.790710	68.969475
712.739380	91.122139
712.688049	76.332085
712.636658	66.471039
712.585266	83.689484
712.533875	100.901840
712.482544	71.356979
712.431152	63.963921
712.379761	108.227509
712.328430	68.859879
712.277039	73.765404
712.225647	71.293953
712.174255	88.487198
712.122864	68.811211
712.071472	61.427719
712.020081	68.786880
711.968689	85.968399
711.917297	68.762558
711.865906	66.295029
711.814514	73.648125
711.763123	73.635101
711.711731	73.622078
711.660339	107.959953
711.608948	103.034454
711.557495	85.846863
711.506104	88.284012
711.454712	88.268394
711.403259	93.155716
711.351868	73.530975
711.300476	71.067368
711.249084	78.405289
711.197632	110.237930
711.146240	90.624039
711.094788	90.608002
711.043335	83.246674
710.991943	78.335945
710.940552	83.217216
710.889099	102.779541
710.837708	95.421249
710.786255	80.726768
710.734802	63.591652
710.683411	78.252792
710.631958	53.789272
710.580566	70.891487
710.529053	68.434830
710.477661	85.528397
710.426208	97.729431
710.374817	85.498108
710.323364	92.810081
710.271912	85.467827
710.220398	80.569679
710.169006	95.201851
710.117554	70.778580
710.066101	102.488754
710.014648	100.030823
709.963196	68.301628
709.911682	102.434296
709.860291	78.031349
709.808838	102.398003
709.757324	70.690849
709.705872	116.984818
709.654419	77.976059
709.602966	92.580162
709.551453	56.025429
709.500000	85.240974
709.448547	104.706062
709.397095	60.864830
709.345581	68.156525
709.294067	65.710716
709.242676	77.865555
709.191101	92.448952
709.139648	82.702820
709.088196	80.256149
709.036682	60.789333
708.985168	102.107971
708.933716	97.228439
708.882202	92.350639
708.830750	106.913353
708.779236	75.311958
708.727783	77.727585
708.676270	82.570908
708.624756	82.556259
708.573242	89.824699
708.521790	82.526970
708.470215	63.097664
708.418701	99.482506
708.367249	89.760971
708.315735	92.170578
708.264221	87.304001
708.212708	75.165108
708.161194	58.182011
708.109680	55.747864
708.058167	104.205765
708.006653	89.649513
707.955139	82.366005
707.903625	104.150284
707.852112	89.601776
707.800598	79.900909
707.749084	116.198868
707.697510	111.337479
707.645935	89.538155
707.594482	120.976021
707.542908	77.410904
707.491333	70.141167
707.439819	91.892792
707.388306	89.458672
707.336792	84.608032
707.285217	67.674408
707.233704	79.744949
707.182129	120.804214
707.130615	79.716621
707.079041	99.024261
707.027466	94.177071
706.975952	96.574707
706.924377	84.487846
706.872803	96.540382
706.821289	72.392418
706.769714	91.680763
706.718201	118.198921
706.666626	84.412796
706.615051	69.929596
706.563477	74.739037
706.511902	91.599312
706.460327	69.892303
706.408813	84.337784
706.357178	93.959679
706.305603	98.760559
706.254028	84.292801
706.202454	89.093689
706.150879	60.187733
706.099304	74.619514
706.047791	79.419548
705.996155	108.280121
705.944580	60.144920
705.893005	79.377174
705.841431	91.387756
705.789795	110.607597
705.738220	57.698044
705.686646	69.706062
705.635010	86.516273
705.583435	88.903679
705.531860	62.461735
705.480225	91.273979
705.428650	93.659256
705.377014	76.834946
705.325439	72.019936
705.273865	84.008301
705.222229	76.793915
705.170654	69.582100
705.119019	95.958221
705.067383	81.549965
705.015808	100.720253
704.964172	76.725578
704.912598	79.109161
704.860962	55.126869
704.809326	103.044922
704.757690	103.026566
704.706055	107.799294
704.654480	93.409416
704.602844	102.971519
704.551208	71.827797
704.499573	90.965668
704.447937	71.802208
704.396301	62.217491
704.344666	69.384071
704.293030	69.371704
704.241394	105.234863
704.189758	76.520805
704.138123	74.116318
704.086487	90.836075
704.034851	76.479897
703.983154	112.309830
703.931519	112.289810
703.879883	54.940536
703.828247	93.143433
703.776611	85.963226
703.724915	88.335335
703.673279	73.997490
703.621582	88.303841
703.569946	109.763573
703.518311	90.658089
703.466614	78.715347
703.414978	83.471085
703.363342	59.611568
703.311646	88.209389
703.259949	73.891975
703.208313	90.561104
703.156616	92.927711
703.104919	88.146454
703.053284	69.075439
703.001587	69.063110
702.949890	95.242462
702.898254	85.702919
702.846558	80.927200
702.794922	73.773399
702.743225	104.691940
702.691528	92.778564
702.639832	99.897545
702.588135	92.745445
702.536438	83.218231
702.484741	83.203377
702.433044	92.695778
702.381348	92.679230
702.329651	66.527054
702.277954	71.266258
702.226257	87.879356
702.174561	61.742031
702.122864	123.462013
702.071167	104.449196
702.019409	90.190010
701.967712	97.292892
701.916016	64.059486
701.864319	87.769539
701.812561	87.753853
701.760864	116.193802
701.709106	71.126350
701.657471	85.336372
701.605713	104.281372
701.554016	99.523521
701.502258	78.183075
701.450500	85.275383
701.398804	89.996819
701.347107	68.669502
701.295349	82.862175
701.243652	75.746162
701.191895	89.932480
701.140198	97.015068
701.088440	68.608147
701.036682	61.499752
700.984924	94.598083
700.933228	70.935875
700.881470	70.923195
700.829712	56.728405
700.777954	94.530434
700.726196	87.425011
700.674438	99.221451
700.622681	75.583771
700.570984	80.293388
700.519226	70.834435
700.467468	82.625389
700.415710	92.051819
700.363953	73.156303
700.312134	92.018875
700.260437	92.002411
700.208679	91.985947
700.156860	99.044060
700.105103	84.879715
700.053345	91.936562
700.001526	70.707779
699.949768	106.042679
699.898010	68.326378
699.846252	84.803772
699.794434	91.854301
699.742676	77.708954
699.690918	65.923065
699.639099	91.804970
699.587341	68.253006
699.535522	82.359566
699.483826	94.108360
699.432007	79.977783
699.380249	77.611588
699.328369	89.354912
699.276611	79.934814
699.224854	68.167480
699.173035	84.606537
699.121216	82.241615
699.069458	84.576218
699.017639	72.816475
698.965820	77.500420
698.914062	98.619217
698.862183	91.558578
698.810425	63.375347
698.758606	89.178947
698.706787	96.202141
698.654968	89.146980
698.603149	93.822105
698.551331	91.460152
698.499512	79.720192
698.447693	86.738777
698.395874	112.505806
698.344055	91.394569
698.292236	86.692123
698.240417	77.306137
698.188599	86.661034
698.136780	105.379646
698.084961	91.312645
698.033142	81.932549
697.981262	88.939377
697.929443	84.243248
697.877625	81.888458
697.825745	70.177513
697.773926	77.181419
697.722046	65.475510
697.670227	93.519661
697.618408	91.165306
697.566528	81.800339
697.514709	74.775452
697.462830	91.116226
697.411011	58.397354
697.359131	102.760895
697.307312	70.051666
697.255432	72.373734
697.203613	77.029175
697.151733	109.688515
697.099854	98.001923
697.047974	79.320648
696.996094	76.973862
696.944275	69.963669
696.892395	81.609627
696.840515	90.920105
696.788696	81.580307
696.736816	79.235207
696.684875	76.890945
696.633057	88.525185
696.581177	97.826050
696.529297	93.150925
696.477417	74.507347
696.425537	76.821899
696.373596	88.445686
696.321777	93.083992
696.269897	90.740578
696.218018	81.419220
696.166138	90.707962
696.114197	86.040810
696.062317	74.400291
696.010437	79.036102
695.958496	85.994415
695.906616	79.007683
695.854736	60.406780
695.802795	81.302200
695.750916	85.932579
695.699036	74.306709
695.647095	62.685009
695.595215	88.207481
695.543335	111.399933
695.491394	76.573677
695.439453	51.039936
695.387573	71.906975
695.335632	60.298225
695.283752	57.968632
695.231812	102.006439
695.179932	85.762703
695.127991	90.382263
695.076050	92.683075
695.024170	90.349739
694.972229	94.965965
694.920288	92.633041
694.868347	71.777687
694.816406	104.174667
694.764526	81.010155
694.712585	78.681412
694.660645	90.235962
694.608643	113.352974
694.556763	111.019653
694.504761	73.999779
694.452881	99.419296
694.400940	90.154747
694.348938	101.694733
694.296997	90.122284
694.245056	73.933167
694.193115	101.639793
694.141174	66.977798
694.089233	87.748199
694.037292	92.349892
693.985352	108.491570
693.933350	66.929550
693.881409	108.452477
693.829468	99.204605
693.777466	69.200043
693.725525	66.881317
693.673584	85.315956
693.621582	82.995163
693.569641	66.845161
693.517639	80.660652
693.465698	62.212719
693.413696	89.846611
693.361755	96.740448
693.309753	101.328865
693.257751	99.008080
693.205811	75.969246
693.153809	98.972382
693.101807	89.749458
693.049866	110.440948
692.997803	75.914459
692.945862	78.200790
692.893860	66.688644
692.841858	91.967743
692.789917	73.560921
692.737915	103.426384
692.685913	105.705673
692.633911	80.413719
692.581909	59.725128
692.529907	64.307762
692.477905	78.073906
692.425903	78.059814
692.373901	107.886742
692.321899	110.162323
692.269897	75.722923
692.217896	73.415039
692.165833	91.752228
692.113831	61.921574
692.061829	91.719101
692.009827	73.362038
691.957825	93.978134
691.905762	71.043808
691.853760	91.652878
691.801697	68.727249
691.749695	116.815216
691.697693	82.442909
691.645630	77.848686
691.593628	64.099098
691.541565	84.687080
691.489563	75.518074
691.437561	77.792450
691.385498	82.353592
691.333435	105.210579
691.281433	134.919617
691.229370	80.022598
691.177368	84.580032
691.125305	75.422607
691.073242	111.970909
691.021179	66.256516
690.969177	95.940376
690.917114	111.910202
690.865051	73.070999
690.812988	66.208626
690.760986	86.740440
690.708923	91.289223
690.656860	82.145447
690.604797	73.004967
690.552734	82.115738
690.500671	54.733925
690.448608	102.607552
690.396606	86.630707
690.344482	91.173721
690.292419	79.762573
690.240356	75.191109
690.188293	84.289932
690.136169	79.719292
690.084167	93.368561
690.032043	68.306099
689.979980	86.505402
689.927856	97.869980
689.875793	100.127899
689.823730	75.082336
689.771606	56.870262
689.719543	61.408768
689.667480	77.315559
689.615417	65.933685
689.563293	109.111862
689.511230	90.910088
689.459106	104.527679
689.407043	70.429810
689.354919	77.231613
689.302856	90.844269
689.250732	86.286423
689.198669	93.081650
689.146545	90.794914
689.094421	68.083855
689.042358	54.457218
688.990234	99.820145
688.938110	92.997375
688.886047	95.248344
688.833862	81.626648
688.781738	77.077866
688.729675	81.597069
688.677551	86.114632
688.625427	81.567505
688.573303	56.633831
688.521179	79.272995
688.469055	81.523163
688.416992	90.564873
688.364807	92.812164
688.312683	104.111847
688.260559	90.515625
688.208435	88.236732
688.156311	95.006943
688.104187	79.158096
688.052063	81.404999
687.999878	49.738476
687.947754	72.333755
687.895630	79.100693
687.843445	65.528687
687.791382	76.812805
687.739197	65.504913
687.687073	99.368744
687.634949	72.255066
687.582764	79.014641
687.530640	76.743149
687.478455	88.012939
687.426331	112.816620
687.374146	76.701378
687.321960	101.498108
687.269836	76.673546
687.217651	65.386154
687.165466	87.917137
687.113342	94.662811
687.061218	69.857483
687.009033	65.338692
686.956848	103.621864
686.904663	78.828407
686.852539	67.554939
686.800354	92.308311
686.748169	90.040535
686.696045	103.527817
686.643799	90.007835
686.591614	101.240425
686.539490	78.728249
686.487305	87.709831
686.435120	74.202530
686.382935	98.918732
686.330688	78.671059
686.278564	89.893440
686.226379	60.667049
686.174133	94.353813
686.121948	98.828896
686.069763	80.845306
686.017578	101.038269
685.965393	69.591492
685.913208	92.023628
685.861023	92.006897
685.808777	78.528198
685.756592	76.270668
685.704407	78.499649
685.652161	74.000496
685.599976	71.745010
685.547729	80.698456
685.495544	87.407433
685.443359	89.632347
685.391113	80.654442
685.338867	62.719822
685.286682	85.104271
685.234497	91.806328
685.182251	76.118233
685.130005	80.581108
685.077820	78.328491
685.025574	96.214638
684.973328	85.011421
684.921082	76.049011
684.868896	78.271500
684.816650	89.436859
684.764404	100.598152
684.712219	107.285172
684.659973	102.796242
684.607727	75.965996
684.555481	67.016617
684.503235	69.237900
684.451050	66.992218
684.398804	69.212692
684.346497	62.503304
684.294312	95.969742
684.242004	84.795021
684.189758	91.472710
684.137512	84.764137
684.085266	53.525497
684.033020	73.584152
683.980774	78.029579
683.928528	82.473389
683.876282	78.001152
683.824036	80.215141
683.771729	84.656113
683.719482	69.048981
683.667175	89.079224
683.614929	82.383263
683.562683	109.082275
683.510376	115.739685
683.458130	57.859295
683.405823	100.122833
683.353577	95.655495
683.301331	80.069069
683.249023	64.488327
683.196716	53.359917
683.144470	91.139908
683.092163	77.788170
683.039917	95.550896
682.987610	68.872971
682.935364	99.958656
682.883057	91.056831
682.830750	68.835289
682.778442	59.942383
682.726196	75.469231
682.673889	62.139793
682.621643	71.003952
682.569275	64.335594
682.517029	93.158684
682.464722	82.053391
682.412415	93.124687
682.360107	62.071796
682.307800	73.142693
682.255493	95.289749
682.203186	86.409813
682.150879	75.317879
682.098572	75.304131
682.046204	88.576927
681.993958	90.774773
681.941650	97.399040
681.889343	88.528419
681.837036	59.745770
681.784668	86.283684
681.732300	101.751915
681.679993	110.579712
681.627686	95.081184
681.575378	75.166740
681.523010	88.415306
681.470703	50.829514
681.418396	81.754280
681.366089	83.948517
681.313721	77.306870
681.261414	77.292747
681.209045	72.862701
681.156738	77.264503
681.104370	90.493301
681.052002	79.443016
680.999695	92.666573
680.947388	105.885300
680.895020	101.454865
680.842651	90.410629
680.790344	94.803574
680.737976	90.377579
680.685608	83.749268
680.633240	79.326904
680.580933	61.687420
680.528564	72.689735
680.476196	66.069496
680.423828	90.278458
680.371460	83.657417
680.319092	72.636574
680.266724	59.419052
680.214355	85.811821
680.161987	79.196419
680.109619	72.583435
680.057312	65.972870
680.004883	92.345116
679.952515	76.940178
679.900146	79.123985
679.847778	112.071800
679.795410	79.095032
679.742981	72.490509
679.690674	59.299557
679.638245	65.876335
679.585876	92.209991
679.533447	68.047295
679.481140	89.981552
679.428711	70.216644
679.376282	89.948608
679.323914	103.092934
679.271545	87.722603
679.219116	78.935883
679.166748	67.960114
679.114380	98.633713
679.061951	98.615646
679.009583	94.215462
678.957153	89.816895
678.904785	85.419930
678.852356	85.404274
678.799927	70.062462
678.747559	78.805832
678.695129	74.414093
678.642700	83.153450
678.590332	80.950356
678.537903	72.185738
678.485474	69.985458
678.433044	87.465790
678.380676	87.449753
678.328186	85.247879
678.275757	72.119598
678.223389	83.031578
678.170959	98.308846
678.118530	85.185371
678.066101	82.985916
678.013672	109.171967
677.961243	91.687630
677.908813	100.401367
677.856384	91.653999
677.803955	78.546158
677.751526	78.531754
677.699097	89.422531
677.646606	82.864212
677.594177	109.011856
677.541748	69.754784
677.489319	63.203674
677.436829	52.296890
677.384399	95.860031
677.331970	82.773018
677.279480	69.690796
677.227051	78.387756
677.174622	106.674858
677.122192	78.358978
677.069702	71.815880
677.017212	67.451012
676.964783	67.438629
676.912354	67.426247
676.859863	78.287064
676.807434	126.106003
676.754944	86.953682
676.702454	67.376724
676.649963	78.229568
676.597534	76.042557
676.545044	73.856339
676.492615	95.561234
676.440125	73.829201
676.387634	78.157738
676.335205	86.825974
676.282715	52.086010
676.230225	78.114655
676.177734	95.455925
676.125244	91.100273
676.072754	80.240250
676.020264	86.730270
675.967773	86.714325
675.915283	75.861084
675.862793	75.847137
675.810303	62.833218
675.757812	93.149368
675.705322	80.137039
675.652832	82.287773
675.600342	71.447296
675.547852	90.916199
675.495361	82.242378
675.442810	77.899506
675.390320	90.866035
675.337830	73.544685
675.285278	75.693840
675.232788	90.815895
675.180298	86.475418
675.127808	77.813553
675.075256	88.604683
675.022766	66.981453
674.970276	75.610306
674.917725	84.235977
674.865234	79.901474
674.812683	84.204971
674.760132	82.030769
674.707642	84.173973
674.655090	84.158478
674.602600	81.985466
674.550049	58.242107
674.497498	75.485123
674.445007	64.689621
674.392456	77.613251
674.339905	58.199219
674.287415	64.653885
674.234863	60.332512
674.182312	90.482101
674.129822	107.696938
674.077271	55.992092
674.024658	62.441212
673.972168	71.040703
673.919617	79.637016
673.867065	66.710609
673.814514	55.940525
673.761963	94.651138
673.709412	83.879860
673.656860	66.661446
673.604309	88.148888
673.551758	92.431793
673.499146	96.713112
673.446655	75.207443
673.394104	83.787125
673.341492	88.067665
673.288940	96.641808
673.236389	92.329582
673.183777	83.725342
673.131287	79.417084
673.078674	85.840477
673.026123	70.805328
672.973511	83.663589
672.920959	75.068855
672.868408	70.766151
672.815796	57.888897
672.763245	66.452766
672.710632	75.013474
672.658081	77.142471
672.605469	85.698044
672.552917	81.398117
672.500305	59.966488
672.447754	74.944275
672.395142	87.775658
672.342529	66.354713
672.289978	89.883339
672.237366	92.006424
672.184753	64.178680
672.132141	96.250244
672.079590	70.570480
672.026978	74.833656
671.974365	87.646088
671.921814	74.806015
671.869202	87.613716
671.816589	74.778381
671.763977	89.717484
671.711365	89.700912
671.658752	96.090363
671.606140	74.723145
671.553528	81.112991
671.500916	85.366318
671.448303	87.484306
671.395691	66.134445
671.343079	55.457352
671.290466	72.507744
671.237793	83.155281
671.185181	72.480942
671.132568	89.518730
671.079956	78.847160
671.027344	80.963196
670.974731	80.948227
670.922058	59.635033
670.869446	80.918289
670.816772	97.935608
670.764160	70.245155
670.711548	51.077938
670.658875	87.242004
670.606262	74.461105
670.553589	95.718002
670.500977	95.700294
670.448303	87.177467
670.395691	97.790771
670.343018	61.639297
670.290405	95.629486
670.237732	72.240021
670.185120	78.599586
670.132446	72.213280
670.079773	80.694023
670.027161	89.171623
669.974426	55.191261
669.921814	74.282173
669.869141	65.780602
669.816528	65.768425
669.763855	61.513908
669.711121	91.193390
669.658508	55.129978
669.605835	74.199692
669.553162	48.750767
669.500488	78.410622
669.447815	72.039658
669.395142	69.907890
669.342468	91.075226
669.289795	97.411263
669.237122	61.400070
669.184448	74.089798
669.131775	93.124207
669.079102	86.758751
669.026367	80.395645
668.973694	65.573769
668.921021	69.791397
668.868347	95.152443
668.815613	71.879631
668.762939	93.003456
668.710266	84.532921
668.657593	95.081909
668.604858	84.501579
668.552185	71.813026
668.499451	71.799706
668.446777	86.565948
668.394104	80.216972
668.341370	78.091515
668.288635	80.187218
668.235962	67.513557
668.183289	75.938660
668.130554	92.796700
668.077881	78.019112
668.025146	69.571701
667.972412	59.019581
667.919739	99.050201
667.867004	94.817696
667.814270	58.986729
667.761536	69.507172
667.708801	96.870804
667.656128	75.797859
667.603394	84.204208
667.550720	73.665009
667.497925	94.694572
667.445251	77.845520
667.392517	88.348785
667.339783	88.332375
667.287048	77.802170
667.234314	103.016167
667.181580	77.773270
667.128845	81.962006
667.076050	73.541985
667.023376	71.427513
666.970642	69.313828
666.917908	86.101181
666.865112	83.985542
666.812378	73.473694
666.759644	60.866894
666.706909	62.954052
666.654114	73.432747
666.601379	88.102921
666.548645	77.600052
666.495850	71.294899
666.443115	90.150314
666.390381	79.652916
666.337646	69.159409
666.284851	98.481445
666.232117	60.753849
666.179321	73.309982
666.126587	98.426521
666.073792	79.564095
666.020996	85.829506
665.968262	66.976418
665.915527	71.149208
665.862732	77.412682
665.809937	71.122742
665.757202	77.383881
665.704407	75.278419
665.651611	81.536446
665.598877	104.514450
665.546082	56.427303
665.493286	68.953865
665.440491	64.762794
665.387756	66.839470
665.334961	68.915375
665.282166	96.045975
665.229370	68.889725
665.176575	68.876900
665.123779	87.645187
665.071045	98.060875
665.018188	70.924446
664.965393	91.767487
664.912598	98.006104
664.859802	83.393913
664.807007	54.195950
664.754211	87.530998
664.701416	77.096275
664.648621	68.748734
664.595825	47.906860
664.542969	87.465790
664.490173	81.203102
664.437378	85.351456
664.384583	79.091492
664.331787	87.400620
664.278931	68.659119
664.226135	64.485939
664.173279	72.793137
664.120483	89.414894
664.067688	64.449883
664.014832	78.988358
663.962036	87.286644
663.909180	78.958908
663.856384	93.486534
663.803528	68.544006
663.750671	76.838043
663.697876	95.510559
663.645081	91.340889
663.592224	62.266262
663.539368	74.705574
663.486572	66.392570
663.433716	72.603325
663.380859	91.255722
663.328064	74.649841
663.275208	97.441338
663.222351	72.549156
663.169556	97.404976
663.116638	72.522079
663.063782	74.580215
663.010925	78.708870
662.958130	53.843384
662.905273	80.750000
662.852417	86.945305
662.799561	66.231674
662.746704	62.080605
662.693848	88.965584
662.640991	72.400322
662.588135	84.795975
662.535278	68.237671
662.482422	82.696877
662.429504	88.882538
662.376648	68.199440
662.323792	90.915604
662.270935	64.042206
662.218079	64.030243
662.165222	78.474022
662.112305	84.653519
662.059448	82.573364
662.006531	92.877678
661.953674	72.224693
661.900818	70.148018
661.847961	101.076775
661.795044	88.683449
661.742188	76.294754
661.689270	86.588661
661.636353	76.266228
661.583496	88.617149
661.530640	88.600578
661.477722	96.824387
661.424805	74.149490
661.371948	111.203438
661.319031	57.650257
661.266174	69.990791
661.213257	86.443039
661.160339	88.484650
661.107483	94.640289
661.054565	88.451546
661.001648	84.321747
660.948730	78.137238
660.895813	96.625343
660.842957	67.830627
660.790039	65.762848
660.737122	94.516396
660.684204	63.683910
660.631287	71.887733
660.578369	55.445869
660.525452	69.807655
660.472534	80.058495
660.419617	94.410286
660.366699	94.392609
660.313782	86.168419
660.260864	77.947304
660.207947	84.085289
660.154968	84.069534
660.102112	61.502773
660.049133	88.137466
659.996216	65.578384
659.943298	92.202324
659.890320	69.650932
659.837402	81.926918
659.784485	69.624832
659.731567	79.848808
659.678589	69.598740
659.625610	98.238632
659.572693	71.618912
659.519775	71.605484
659.466858	96.137909
659.413879	83.849266
659.360962	75.654663
659.307983	85.862167
659.255005	87.890022
659.202087	85.829971
659.149109	71.511566
659.096130	55.155720
659.043213	67.399902
658.990234	75.555412
658.937256	95.957794
658.884338	65.320709
658.831360	100.003578
658.778381	67.336716
658.725464	73.444450
658.672485	83.629372
658.619507	75.456253
658.566528	79.520042
658.513550	67.273560
658.460571	69.299149
658.407654	89.664413
658.354614	81.497803
658.301697	77.408379
658.248718	77.393852
658.195740	73.306725
658.142761	73.292961
658.089783	75.314735
658.036804	77.335747
657.983826	81.390762
657.930786	56.962833
657.877808	48.816116
657.824829	99.647514
657.771851	75.229912
657.718872	83.347214
657.665833	91.461464
657.612854	97.540565
657.559875	89.395386
657.506836	81.253265
657.453857	69.052299
657.400879	64.978188
657.347839	69.026344
657.294861	83.222008
657.241882	71.029823
657.188843	58.842220
657.135864	87.232407
657.082825	81.131172
657.029846	70.976433
656.976807	60.825500
656.923767	70.949745
656.870789	68.909645
656.817749	93.213165
656.764771	89.143654
656.711731	89.126884
656.658752	64.807365
656.605652	62.770325
656.552673	78.954262
656.499634	82.987587
656.446594	89.043091
656.393616	64.746429
656.340576	78.894859
656.287537	86.970276
656.234497	70.776436
656.181458	103.111969
656.128479	86.921181
656.075378	56.589184
656.022339	103.053757
655.969299	78.790977
655.916321	74.736343
655.863220	60.585625
655.810181	76.727341
655.757141	72.675377
655.704102	54.496269
655.651062	72.648010
655.598022	68.599083
655.544983	72.620644
655.491943	64.539528
655.438843	64.527367
655.385803	84.676216
655.332764	64.503059
655.279663	74.567612
655.226624	78.583481
655.173584	80.583252
655.120483	70.497063
655.067444	84.580528
655.014404	66.443604
654.961304	66.431084
654.908264	64.405876
654.855164	64.393738
654.802124	76.453148
654.749023	66.381004
654.695984	80.446655
654.642944	76.409912
654.589844	72.374687
654.536743	98.491417
654.483704	80.385994
654.430603	74.343018
654.377563	82.364563
654.324402	82.349030
654.271362	84.341629
654.218262	62.240410
654.165161	86.317184
654.112122	74.258911
654.059021	80.264755
654.005920	80.249611
653.952820	88.257912
653.899719	88.241257
653.846619	106.270546
653.793518	78.184319
653.740417	86.186951
653.687378	72.142899
653.634216	90.161598
653.581177	56.089958
653.528015	66.093544
653.474915	90.110535
653.421875	74.076897
653.368713	76.064606
653.315613	88.058174
653.262512	76.035873
653.209412	76.021515
653.156311	74.006966
653.103149	77.992607
653.050049	73.979004
652.996948	93.955574
652.943848	67.955025
652.890686	67.942184
652.837585	73.923111
652.784485	91.887039
652.731323	87.875336
652.678223	63.897255
652.625061	79.856468
652.571960	67.865173
652.518799	73.839310
652.465698	85.797028
652.412537	77.801201
652.359436	81.775536
652.306274	89.736664
652.253174	75.763298
652.200012	83.722549
652.146912	75.734642
652.093750	63.764481
652.040588	83.675049
651.987427	67.724129
651.934326	87.626411
651.881165	69.689636
651.828003	61.713428
651.774902	77.624786
651.721680	91.540115
651.668579	71.626534
651.615417	75.591476
651.562256	81.543785
651.509094	69.597374
651.455933	79.524796
651.402832	71.558769
651.349670	67.570488
651.296448	87.427605
651.243286	53.638599
651.190125	73.490829
651.136963	73.476913
651.083801	75.448479
651.030640	77.419304
650.977478	65.496231
650.924316	71.436897
650.871155	83.327263
650.817932	107.114754
650.764771	61.480152
650.711609	67.417068
650.658447	67.404297
650.605225	75.319939
650.552063	57.470112
650.498901	93.123566
650.445740	101.029823
650.392517	83.185257
650.339355	81.189262
650.286133	91.073128
650.232971	85.117432
650.179749	81.143097
650.126587	89.042610
650.073364	57.372135
650.020203	83.074921
649.966980	71.193573
649.913757	79.088966
649.860596	90.935059
649.807373	83.011909
649.754211	73.115669
649.700989	73.101799
649.647827	65.186531
649.594543	65.174164
649.541382	88.856995
649.488159	80.943230
649.434937	98.692528
649.381714	94.726845
649.328552	78.924057
649.275330	82.854530
649.222107	86.783508
649.168884	67.047249
649.115662	94.636971
649.062439	82.791626
649.009216	67.009071
648.955994	82.760193
648.902771	94.565117
648.849548	72.880096
648.796326	66.958183
648.743103	74.821404
648.689819	86.618851
648.636658	70.856506
648.583374	84.618080
648.530151	84.602005
648.476929	98.355736
648.423706	96.370300
648.370483	64.890114
648.317200	82.571724
648.263977	78.624794
648.210693	86.470833
648.157532	62.875927
648.104248	80.544464
648.051025	72.672653
647.997742	86.405106
647.944519	76.571777
647.891296	72.631210
647.838013	80.467926
647.784729	78.490364
647.731506	92.208641
647.678284	70.614464
647.625000	58.834194
647.571716	58.823002
647.518433	56.851418
647.465210	96.041016
647.411926	88.184151
647.358704	60.737526
647.305420	64.643776
647.252197	62.672943
647.198853	76.368111
647.145630	62.649090
647.092346	60.679752
647.039124	64.582283
646.985779	72.396652
646.932556	58.688816
646.879211	44.986191
646.825989	82.133057
646.772705	70.386360
646.719421	64.508545
646.666138	91.858307
646.612854	93.794876
646.559570	68.379066
646.506287	56.646152
646.453003	83.976570
646.399719	87.865715
646.346436	72.231384
646.293091	76.121277
646.239868	78.058228
646.186523	83.896606
646.133240	76.077766
646.079956	60.460548
646.026672	74.098808
645.973328	91.631050
645.920044	79.918236
645.866760	74.056442
645.813477	95.475624
645.760132	56.495209
645.706848	83.752785
645.653564	79.842087
645.600220	89.561844
645.546875	58.398758
645.493591	85.635178
645.440308	68.105896
645.386963	79.765976
645.333618	66.134781
645.280334	79.735550
645.227051	75.831535
645.173706	83.593178
645.120422	71.915291
645.067078	93.277710
645.013733	85.488251
644.960449	67.989044
644.907104	67.976067
644.853760	62.137684
644.800415	110.661621
644.747131	62.113960
644.693787	75.686943
644.640442	108.657936
644.587097	83.417839
644.533752	83.401909
644.480408	71.750732
644.427063	58.165157
644.373779	85.292610
644.320435	75.585823
644.267090	73.633659
644.213745	75.556953
644.160400	73.605530
644.107056	92.957642
644.053650	75.513657
644.000305	63.883961
643.947021	90.968864
643.893616	79.340652
643.840271	73.521179
643.786926	92.851112
643.733582	63.822937
643.680176	71.545372
643.626831	77.331566
643.573486	75.383858
643.520142	81.167099
643.466736	102.405563
643.413391	77.272438
643.360046	52.148922
643.306702	81.105034
643.253296	90.743034
643.199890	77.213341
643.146545	94.568253
643.093201	82.972588
643.039795	88.744392
642.986450	65.581131
642.933044	67.497070
642.879700	61.699802
642.826294	73.254494
642.772949	63.603569
642.719543	61.664387
642.666138	94.405518
642.612793	71.272156
642.559387	80.888039
642.506042	86.649162
642.452576	96.258415
642.399231	80.841591
642.345825	96.221558
642.292419	76.962509
642.239075	73.100380
642.185669	75.009705
642.132263	69.226471
642.078857	71.135796
642.025452	80.733276
641.972046	76.874107
641.918640	78.780861
641.865234	63.396835
641.811829	71.067680
641.758423	69.133682
641.705017	59.520374
641.651611	90.223274
641.598206	69.093941
641.544800	86.350876
641.491394	63.311836
641.437988	74.808739
641.384521	72.876587
641.331116	55.605682
641.277710	67.097435
641.224304	88.168297
641.170898	47.908363
641.117493	90.050446
641.064026	65.130386
641.010620	93.846375
640.957214	68.935127
640.903748	86.152382
640.850342	82.307594
640.796936	68.895462
640.743469	76.535828
640.690002	68.869026
640.636597	49.729198
640.583191	66.930305
640.529724	74.565170
640.476257	68.816177
640.422852	70.714157
640.369385	84.076370
640.315979	66.866096
640.262512	89.774368
640.209045	63.020966
640.155640	87.830544
640.102173	61.087772
640.048706	61.076042
639.995300	85.871689
639.941833	74.407837
639.888367	76.301071
639.834900	61.029133
639.781494	66.737793
639.727966	68.631393
639.674561	72.430328
639.621094	60.982243
639.567627	85.739799
639.514160	85.723328
639.460693	74.279274
639.407227	91.403069
639.353760	70.442993
639.300293	68.525948
639.246826	74.222176
639.193359	79.916206
639.139893	85.608047
639.086426	83.689552
639.032959	85.575127
638.979492	60.841721
638.926025	72.235649
638.872498	74.122330
638.819031	68.407448
638.765564	83.593025
638.712097	94.973801
638.658569	77.863533
638.605103	74.051064
638.551636	62.646534
638.498108	74.022568
638.444641	64.520073
638.391113	77.788643
638.337646	100.536705
638.284180	85.344917
638.230652	51.197094
638.177185	85.312065
638.123657	60.654678
638.070129	85.279221
638.016663	70.104973
637.963196	71.985832
637.909668	75.759972
637.856140	60.596306
637.802673	71.944252
637.749146	94.645256
637.695618	79.486702
637.642090	75.687042
637.588623	81.347893
637.535156	73.766434
637.481567	86.989799
637.428101	62.393700
637.374573	71.833443
637.321045	92.609482
637.267517	103.929390
637.214050	85.016747
637.160522	71.778084
637.106995	90.649574
637.053406	69.862244
636.999939	71.736580
636.946411	69.835304
636.892883	84.918449
636.839355	73.581802
636.785828	81.113007
636.732300	56.579556
636.678711	86.738586
636.625183	60.328247
636.571655	75.395760
636.518127	90.457458
636.464600	77.250839
636.411011	69.700722
636.357544	92.288551
636.304016	69.673828
636.250427	64.012238
636.196899	75.293983
636.143372	75.279449
636.089783	79.028168
636.036255	77.131653
635.982666	99.687523
635.929138	67.699203
635.875610	73.326645
635.822083	65.793259
635.768494	84.574997
635.714905	45.097954
635.661377	71.391304
635.607788	75.134224
635.554260	71.363724
635.500671	69.472313
635.447083	76.967957
635.393555	63.814758
635.339966	97.580185
635.286438	63.790100
635.232849	73.156860
635.179260	60.014538
635.125732	78.753860
635.072144	73.114449
635.018555	76.849052
634.965027	65.590164
634.911438	73.072060
634.857849	86.170891
634.804260	73.043808
634.750671	86.137573
634.697083	82.376526
634.643494	71.129608
634.589905	74.858788
634.536316	71.102097
634.482727	89.795799
634.429138	67.333824
634.375610	86.021019
634.321960	84.134720
634.268372	74.771942
634.214783	65.412796
634.161194	67.268707
634.107605	84.069618
634.054016	54.167713
634.000427	91.507042
633.946777	67.216652
633.893188	59.736565
633.839600	76.522659
633.786011	87.704117
633.732361	91.418503
633.678772	67.151604
633.625183	78.328369
633.571594	83.907005
633.517944	95.076187
633.464355	70.827362
633.410767	76.404190
633.357117	76.389389
633.303467	98.728134
633.249878	78.222229
633.196289	83.793297
633.142639	78.191917
633.089050	83.760826
633.035400	76.300629
632.981750	63.261429
632.928162	91.153214
632.874512	81.835999
632.820862	81.820137
632.767273	76.226707
632.713623	65.058968
632.659973	59.470947
632.606384	89.189125
632.552734	85.456337
632.499084	87.297150
632.445496	79.852119
632.391785	70.553299
632.338196	92.815285
632.284546	87.229439
632.230896	64.945496
632.177307	61.222443
632.123596	77.904358
632.069946	48.217148
632.016357	66.749252
631.962646	83.420372
631.909058	96.378159
631.855408	57.445061
631.801697	61.139324
631.748047	79.650925
631.694397	61.115589
631.640747	81.471634
631.587097	79.604546
631.533447	74.036362
631.479736	77.723083
631.426086	68.457039
631.372437	70.293571
631.318787	77.677803
631.265076	62.869820
631.211426	90.588905
631.157776	83.177727
631.104126	72.073357
631.050415	75.754707
630.996765	73.892670
630.943115	88.653976
630.889465	73.863953
630.835754	59.079678
630.782043	90.448174
630.728394	68.284325
630.674744	95.948502
630.621033	90.395439
630.567322	86.688972
630.513672	77.451675
630.460022	77.436615
630.406250	92.168526
630.352600	81.092529
630.298889	79.234100
630.245239	84.745575
630.191528	79.203278
630.137817	58.930511
630.084106	66.283928
630.030457	77.316200
629.976746	77.301155
629.923035	84.646698
629.869324	57.033413
629.815674	80.934898
629.761963	77.241005
629.708252	88.258247
629.654541	69.857513
629.600830	69.843918
629.547119	75.343239
629.493469	82.677696
629.439758	90.009293
629.385986	99.174606
629.332336	78.956993
629.278564	80.777466
629.224854	84.432716
629.171143	82.581139
629.117432	86.234612
629.063721	73.376862
629.009949	78.864754
628.956299	64.179741
628.902527	108.167618
628.848816	89.816620
628.795105	84.301208
628.741394	86.117058
628.687622	84.268356
628.633911	84.251930
628.580200	67.754646
628.526428	51.263790
628.472717	104.338089
628.419006	56.734211
628.365295	84.169830
628.311523	69.518044
628.257812	73.162613
628.204041	65.833511
628.150269	84.104195
628.096558	100.539749
628.042786	71.277916
627.989075	60.300316
627.935303	84.038582
627.881592	78.542480
627.827820	96.789284
627.774048	96.770393
627.720337	78.496506
627.666565	78.481186
627.612793	85.765022
627.559082	69.328400
627.505310	85.731544
627.451538	72.948769
627.397766	71.111168
627.344055	72.920288
627.290283	67.438095
627.236511	74.714104
627.182739	76.521454
627.128967	89.257599
627.075195	63.742973
627.021423	63.730522
626.967651	63.718071
626.913940	81.907234
626.860107	72.792206
626.806335	83.694679
626.752563	58.211006
626.698792	72.749542
626.645020	76.372086
626.591248	79.993217
626.537476	76.342239
626.483704	76.327316
626.429932	74.495430
626.376099	69.031044
626.322327	92.628815
626.268555	108.953773
626.214783	81.699348
626.161011	54.455582
626.107178	72.593239
626.053406	67.135612
625.999573	74.378967
625.945862	67.109352
625.892029	85.230339
625.838196	94.278946
625.784424	81.571587
625.730652	74.306236
625.676819	88.787643
625.623047	83.335350
625.569214	59.772354
625.515381	63.382515
625.461609	76.044128
625.407837	65.167923
625.354004	86.873550
625.300232	66.951920
625.246399	77.793755
625.192566	75.969719
625.138794	84.997086
625.084961	86.788528
625.031128	79.540573
624.977295	92.176697
624.923462	70.474258
624.869690	81.300522
624.815857	79.478264
624.762024	70.432846
624.708191	77.641510
624.654419	72.210510
624.600525	81.220901
624.546753	90.227760
624.492920	68.559654
624.439087	75.761612
624.385254	61.318806
624.331421	77.535049
624.277588	84.731003
624.223755	68.492485
624.169922	97.312340
624.116089	79.275986
624.062256	77.459068
624.008423	73.841835
623.954590	57.621346
623.900696	72.012558
623.846863	79.198273
623.793030	71.984306
623.739197	73.769440
623.685303	79.151665
623.631531	93.524529
623.577637	68.331436
623.523804	77.307236
623.469971	91.671982
623.416077	80.871170
623.362244	71.871368
623.308411	61.078674
623.254517	84.415710
623.200623	66.441872
623.146790	70.019577
623.092957	66.415779
623.039062	73.581413
622.985229	78.949913
622.931396	84.316299
622.877502	75.331680
622.823608	66.350586
622.769775	62.751740
622.715881	87.835175
622.661987	75.272499
622.608154	75.257706
622.554260	75.242920
622.500366	78.810425
622.446533	78.794937
622.392639	91.312546
622.338745	75.183784
622.284851	75.169006
622.231018	84.101158
622.177124	69.772346
622.123230	89.434143
622.069336	78.686569
622.015442	92.974930
621.961548	69.717484
621.907715	109.023849
621.853821	76.837761
621.799927	58.956917
621.746033	69.662651
621.692078	87.507645
621.638184	67.849724
621.584351	71.406708
621.530457	74.962288
621.476562	96.361115
621.422668	57.091648
621.368713	74.918037
621.314819	87.387177
621.260925	69.539368
621.207031	74.873802
621.153137	73.076706
621.099243	76.626335
621.045288	92.646156
620.991394	80.158768
620.937500	73.019165
620.883606	80.127197
620.829651	67.649643
620.775757	99.674576
620.721802	96.095833
620.667908	88.960091
620.614014	90.721420
620.560059	67.583031
620.506165	76.460464
620.452209	99.556801
620.398254	69.320534
620.344360	83.523666
620.290405	85.283951
620.236511	87.043541
620.182556	99.458725
620.128662	60.373749
620.074707	81.666023
620.020813	51.474949
619.966858	85.183121
619.912903	86.940620
619.859009	63.862141
619.805054	65.623146
619.751099	92.208931
619.697144	58.505661
619.643188	69.129417
619.589294	62.026978
619.535339	83.276939
619.481384	86.803505
619.427429	70.846024
619.373535	77.915245
619.319580	69.047607
619.265625	60.183468
619.211609	92.027138
619.157654	77.853745
619.103760	81.376480
619.049805	58.367252
618.995850	104.332970
618.941833	84.864296
618.887939	81.312225
618.833923	84.830780
618.779968	77.746193
618.726013	79.497444
618.672058	83.014267
618.618103	82.997864
618.564148	91.809280
618.510193	67.078140
618.456177	90.008141
618.402222	67.051636
618.348267	81.151726
618.294250	68.788956
618.240295	72.302299
618.186340	91.682350
618.132385	91.664223
618.078369	84.596405
618.024414	93.390060
617.970459	98.656776
617.916443	77.500710
617.862427	77.485390
617.808472	79.230743
617.754517	82.735748
617.700500	77.439423
617.646545	82.703018
617.592529	84.445946
617.538513	73.875587
617.484558	65.067993
617.430542	82.637589
617.376526	93.168625
617.322571	73.817131
617.268555	80.831329
617.214539	82.572182
617.160583	64.990768
617.106567	101.857254
617.052612	64.965042
616.998535	93.039604
616.944580	66.694435
616.890564	87.738457
616.836548	87.721077
616.782532	77.179260
616.728516	66.641617
616.674500	87.668968
616.620544	59.603088
616.566528	89.386917
616.512512	89.369209
616.458496	73.583588
616.404480	75.320656
616.350464	66.549248
616.296448	71.788902
616.242371	71.774681
616.188416	77.011215
616.134338	75.246040
616.080322	80.479813
616.026306	87.460709
615.972290	71.703560
615.918274	80.431946
615.864258	85.660522
615.810181	80.400055
615.756165	78.636627
615.702148	82.115295
615.648132	92.579735
615.594055	75.096962
615.540039	83.812531
615.486023	68.084175
615.431946	66.325264
615.377930	94.232986
615.323853	71.533073
615.269836	81.985046
615.215820	64.528610
615.161743	85.439850
615.107727	64.502998
615.053650	78.434021
614.999634	78.418449
614.945557	66.206871
614.891541	90.580894
614.837463	69.663773
614.783386	94.027412
614.729370	55.708885
614.675293	87.027840
614.621277	76.569290
614.567200	92.212868
614.513123	88.715508
614.459045	80.002014
614.405029	69.553146
614.350952	99.093536
614.296875	73.001778
614.242798	85.151817
614.188721	88.609787
614.134705	76.432465
614.080627	83.364296
614.026550	64.247200
613.972412	95.483612
613.918396	74.635979
613.864319	71.150391
613.810242	65.931145
613.756165	76.326149
613.702087	81.513985
613.648010	88.433754
613.593933	71.079659
613.539856	76.265434
613.485779	81.449150
613.431641	81.432945
613.377563	64.094025
613.323486	76.204758
613.269409	72.726433
613.215332	102.142982
613.161255	72.697487
613.107117	70.952469
613.053040	84.779968
612.998962	84.763092
612.944885	81.287186
612.890747	88.187683
612.836670	62.237732
612.782593	70.867744
612.728516	81.222458
612.674377	89.845245
612.620300	53.550922
612.566162	74.265511
612.512085	88.064804
612.457947	70.783089
612.403870	81.125427
612.349731	77.657806
612.295593	69.015404
612.241516	77.626854
612.187378	75.886688
612.133301	89.666389
612.079163	82.752480
612.025085	81.012314
611.970947	99.952713
611.916870	82.702995
611.862671	70.628052
611.808594	79.225433
611.754456	67.155991
611.700317	96.409889
611.646240	92.948135
611.592102	65.394897
611.537964	79.146454
611.483826	72.249741
611.429749	77.394989
611.375610	80.818634
611.321472	67.048889
611.267334	79.067528
611.213196	73.896202
611.159058	58.417892
611.104919	65.277550
611.050781	92.744316
610.996643	109.897247
610.942505	82.406479
610.888367	66.941895
610.834167	70.360764
610.780029	80.641357
610.725952	89.202408
610.671753	97.760033
610.617615	73.734062
610.563477	73.719337
610.509338	73.704605
610.455200	101.109375
610.401062	85.668793
610.346924	92.503807
610.292725	70.220337
610.238586	68.493958
610.184387	70.192276
610.130249	71.889908
610.076050	75.298187
610.021912	104.369797
609.967773	85.531914
609.913574	75.253036
609.859436	75.237984
609.805237	61.546043
609.751099	66.661545
609.696899	83.737503
609.642761	80.303581
609.588623	97.369965
609.534424	100.766296
609.480286	66.594902
609.426086	93.897102
609.371887	78.516411
609.317749	73.381088
609.263550	73.366402
609.209351	40.940495
609.155212	97.214211
609.101013	83.553383
609.046814	88.651154
608.992676	83.519936
608.938416	74.982483
608.884277	81.782692
608.830078	88.580177
608.775879	88.562439
608.721680	76.625221
608.667542	71.502548
608.613342	85.105034
608.559082	74.877426
608.504944	83.369522
608.450745	68.043121
608.396545	79.934647
608.342346	66.315460
608.288086	79.902618
608.233948	73.087746
608.179749	86.668091
608.125549	76.456520
608.071289	76.441193
608.017151	83.219276
607.962952	71.316513
607.908752	84.883583
607.854553	86.563896
607.800354	100.122467
607.746094	76.349281
607.691895	103.474930
607.637695	115.325974
607.583435	79.694611
607.529236	77.983330
607.475037	83.052536
607.420837	91.508926
607.366577	79.630676
607.312317	103.329712
607.258179	88.066666
607.203918	86.355743
607.149719	86.338409
607.095398	79.550804
607.041199	74.458138
606.987061	72.751305
606.932800	77.811348
606.878540	76.104515
606.824280	87.925339
606.770081	72.692886
606.715881	92.960602
606.661621	82.802811
606.607422	72.649101
606.553162	77.702026
606.498901	75.997581
606.444641	74.293823
606.390442	89.472305
606.336121	70.888336
606.281921	70.874092
606.227661	96.166931
606.173462	79.279602
606.119202	74.204285
606.064880	82.619980
606.010681	94.403854
605.956482	85.957657
605.902161	85.940369
605.847961	74.129723
605.793701	75.799248
605.739441	94.308983
605.685120	80.820015
605.630920	72.386696
605.576660	74.055214
605.522400	85.819458
605.468140	92.531776
605.413818	84.102867
605.359558	65.587036
605.305359	77.343506
605.251099	84.052109
605.196777	68.908859
605.142517	82.337914
605.088318	82.321342
605.033997	68.867256
604.979675	85.646904
604.925415	95.703735
604.871216	67.146996
604.816895	82.238503
604.762573	72.153954
604.708313	83.883041
604.654053	73.802216
604.599792	93.911171
604.545532	100.598839
604.491211	78.786552
604.436951	85.474564
604.382690	68.700996
604.328369	65.336563
604.274109	83.747948
604.219788	77.032578
604.165527	82.039909
604.111206	107.132568
604.056885	56.902702
604.002625	68.604134
603.948303	86.992577
603.893982	68.576469
603.839722	70.234901
603.785400	53.501514
603.731140	81.907677
603.676819	98.603638
603.622559	85.216461
603.568237	93.552139
603.513916	70.149948
603.459595	100.193993
603.405273	96.834656
603.351013	65.099815
603.296692	75.100014
603.242432	61.736443
603.188049	75.069710
603.133728	91.733345
603.079468	96.717453
603.025146	61.686611
602.970825	90.010933
602.916504	81.660095
602.862183	78.311211
602.807861	78.295403
602.753540	91.603775
602.699219	71.603027
602.644897	93.231621
602.590576	76.567650
602.536255	96.522316
602.481934	99.830498
602.427551	96.483315
602.373291	94.800652
602.318909	89.792999
602.264587	74.812378
602.210266	84.770218
602.155945	89.738564
602.101624	83.074463
602.047241	83.057671
601.992920	89.684151
601.938599	66.419273
601.884277	74.706573
601.829895	86.310143
601.775574	74.676361
601.721191	89.593513
601.666870	82.940178
601.612549	48.095570
601.558167	86.222885
601.503845	106.099007
601.449463	76.243233
601.395081	82.856308
601.340759	89.466705
601.286377	76.196953
601.232117	94.398857
601.177734	76.166115
601.123352	81.117050
601.068970	72.825050
601.014648	84.393768
600.960266	62.868900
600.905884	82.705490
600.851562	85.996284
600.797241	77.711670
600.742798	87.614563
600.688477	80.985741
600.634094	80.969330
600.579773	90.865532
600.525391	69.374168
600.471008	84.222992
600.416626	75.950447
600.362305	79.236580
600.307861	102.326508
600.253479	77.554375
600.199158	70.939621
600.144775	84.120636
600.090393	84.103577
600.035950	69.247734
599.981628	85.717903
599.927246	72.515823
599.872864	88.978645
599.818481	82.370934
599.764099	67.530464
599.709717	64.223267
599.655273	72.442322
599.600891	88.888451
599.546509	82.287422
599.492065	82.270729
599.437683	64.158142
599.383301	62.500381
599.328918	92.087128
599.274597	75.627647
599.220154	90.406006
599.165710	92.031067
599.111328	88.726227
599.056946	73.923515
599.002563	77.193329
598.948181	90.314278
598.893738	83.728958
598.839294	85.353363
598.784973	68.925255
598.730530	86.959442
598.676086	80.380135
598.621704	91.844353
598.567322	77.067993
598.512878	81.970566
598.458435	73.758522
598.404053	88.492241
598.349609	63.898071
598.295227	76.989716
598.240784	80.249565
598.186401	85.145493
598.131958	99.861908
598.077515	108.025337
598.023132	83.457153
597.968689	75.259773
597.914246	67.065727
597.859863	83.406250
597.805420	83.389290
597.750977	81.737579
597.696533	80.086533
597.642090	94.777016
597.587708	83.321457
597.533264	62.070023
597.478821	81.654465
597.424377	81.637848
597.369934	81.621231
597.315552	78.340439
597.261047	84.851532
597.206665	65.257126
597.152161	88.079185
597.097778	96.215073
597.043335	68.478142
596.988892	83.135094
596.934387	89.637238
596.879944	84.730675
596.825500	86.342522
596.771118	86.324936
596.716614	83.050468
596.662170	81.405441
596.607727	83.016632
596.553223	65.097816
596.498840	71.593010
596.444336	87.846245
596.389893	86.201889
596.335449	74.801483
596.281006	102.424629
596.226562	74.770996
596.172058	53.629128
596.117615	77.990097
596.063171	87.720970
596.008667	82.830688
595.954224	71.447197
595.899719	71.432632
595.845276	86.026299
595.790771	87.631561
595.736328	73.011406
595.681885	72.996506
595.627380	85.956123
595.572876	81.074135
595.518433	94.026810
595.463928	84.282692
595.409485	95.608925
595.354980	81.007980
595.300537	110.148361
595.245972	95.550392
595.191528	74.481705
595.137085	79.323013
595.082581	92.254868
595.028076	63.108864
594.973572	97.070732
594.919128	82.493271
594.864563	98.648270
594.810120	98.628120
594.755615	90.525352
594.701172	87.274467
594.646667	75.945595
594.592102	87.238808
594.537659	92.066589
594.483154	85.588287
594.428650	92.028969
594.374146	98.467010
594.319641	91.991348
594.265137	67.769241
594.210632	88.727295
594.156128	91.934937
594.101624	87.078453
594.047119	70.938301
593.992615	96.714264
593.938110	80.578735
593.883606	98.285957
593.829102	88.600357
593.774597	83.750473
593.720032	83.733337
593.665527	80.496353
593.611023	85.308678
593.556519	80.463417
593.502014	101.363152
593.447449	85.256310
593.392944	70.764336
593.338440	69.141899
593.283936	86.811592
593.229370	91.615692
593.174866	98.024796
593.120361	83.545006
593.065796	86.740509
593.011292	77.086884
592.956726	101.155815
592.902222	89.897865
592.847717	102.719368
592.793152	89.861038
592.738586	78.612297
592.684082	76.992188
592.629578	80.183762
592.575012	81.770676
592.520447	89.769005
592.465942	70.518333
592.411377	97.744019
592.356812	80.101624
592.302246	83.288612
592.247742	75.264656
592.193176	73.648178
592.138672	99.244576
592.084106	68.816803
592.029541	88.003441
591.974976	78.386986
591.920471	87.967339
591.865906	78.354828
591.811340	87.931252
591.756775	81.519524
591.702209	75.110420
591.647644	103.854797
591.593140	102.236046
591.538574	83.049744
591.483948	102.194084
591.429443	84.612106
591.374878	98.959885
591.320312	94.152168
591.265747	87.750946
591.211182	74.971779
591.156616	76.551201
591.102051	90.885880
591.047485	74.925598
590.992859	94.036217
590.938293	73.301315
590.883728	76.472610
590.829224	78.049751
590.774597	82.811295
590.720093	70.056694
590.665466	82.777260
590.610901	106.633400
590.556274	95.472969
590.501709	77.953568
590.447144	92.252602
590.392578	73.150818
590.337952	98.574303
590.283386	89.016548
590.228821	74.694954
590.174194	68.323883
590.119629	79.430038
590.065002	95.296448
590.010437	84.161209
589.955811	82.556274
589.901245	92.063057
589.846680	88.870178
589.792053	101.545021
589.737488	66.625206
589.682861	74.541435
589.628296	85.625732
589.573669	66.584084
589.519043	80.835457
589.464478	64.971992
589.409851	87.139603
589.355225	79.201515
589.300598	77.601501
589.246033	85.502411
589.191467	90.233955
589.136780	64.891762
589.082214	74.372795
589.027588	68.029175
588.973022	90.159630
588.918396	90.141060
588.863708	66.406044
588.809143	93.265457
588.754517	97.987572
588.699890	96.387260
588.645264	85.308838
588.590637	86.870720
588.536072	85.273674
588.481384	82.098457
588.426819	83.660027
588.372192	77.330116
588.317566	75.736328
588.262939	86.763313
588.208252	74.127907
588.153687	81.996933
588.098999	80.403481
588.044434	88.267967
587.989807	74.066757
587.935120	107.138306
587.880493	81.912392
587.825867	80.320572
587.771240	78.729408
587.716614	96.030052
587.661926	66.105408
587.607300	72.386215
587.552673	110.130196
587.498047	94.377823
587.443359	97.503616
587.388733	66.037201
587.334106	73.883507
587.279419	88.013237
587.224792	95.851761
587.170166	89.547897
587.115479	92.670784
587.060852	84.799805
587.006165	84.782280
586.951538	86.334480
586.896912	59.636955
586.842224	73.746254
586.787537	87.849716
586.732910	78.421036
586.678284	90.949593
586.623535	100.337433
586.568909	73.670067
586.514282	72.087708
586.459595	75.206406
586.404907	86.156189
586.350281	86.138367
586.295593	84.554726
586.240906	95.495766
586.186279	92.345650
586.131592	98.585976
586.076904	107.952782
586.022217	93.852562
585.967590	84.449829
585.912903	75.050980
585.858215	100.047264
585.803528	98.463638
585.748901	85.942528
585.694214	89.049271
585.639465	84.345001
585.584839	93.697266
585.530090	85.871376
585.475464	90.536522
585.420776	76.471909
585.366089	73.335419
585.311401	84.240265
585.256714	96.700264
585.202026	81.086647
585.147339	96.660202
585.092651	81.053055
585.037964	85.711426
584.983276	98.158195
584.928528	74.771698
584.873901	63.854256
584.819153	96.540085
584.764465	85.622643
584.709778	80.935539
584.655090	87.143272
584.600342	90.236824
584.545715	93.329079
584.490967	68.427132
584.436279	104.174255
584.381531	88.607475
584.326782	62.167786
584.272095	82.355232
584.217407	73.016846
584.162720	100.959793
584.108032	72.986549
584.053223	79.181732
583.998535	76.060783
583.943848	88.460503
583.889160	72.925980
583.834412	113.244499
583.779663	77.548622
583.724976	83.735123
583.670288	75.966095
583.615540	88.350380
583.560852	94.530769
583.506104	83.665596
583.451355	82.099182
583.396667	89.825722
583.341919	77.419884
583.287231	78.951874
583.232483	86.674240
583.177734	72.729340
583.122986	92.826675
583.068237	91.260590
583.013489	89.695160
582.958801	88.130371
582.904053	74.199623
582.849304	92.730247
582.794556	89.620598
582.739868	101.960861
582.685120	71.048851
582.630371	69.489861
582.575623	97.265572
582.520874	97.245338
582.466125	94.138603
582.411377	80.232605
582.356567	89.471603
582.301880	87.910690
582.247131	90.976341
582.192383	83.249161
582.137634	100.186470
582.082886	90.919563
582.028137	81.656502
581.973389	75.478035
581.918640	90.862801
581.863892	70.827431
581.809143	107.758438
581.754333	92.345139
581.699585	95.403442
581.644836	78.460678
581.590027	84.596840
581.535278	98.419456
581.480530	79.949150
581.425781	76.858170
581.370972	78.378998
581.316223	86.045280
581.261414	76.810135
581.206665	81.401779
581.151917	93.669312
581.097168	75.226875
581.042358	104.374725
580.987549	87.472343
580.932800	79.782692
580.877991	85.901909
580.823242	70.547569
580.768494	107.332611
580.713684	79.716171
580.658936	101.157112
580.604126	101.136009
580.549377	87.326515
580.494568	108.752441
580.439758	101.072731
580.385010	96.458382
580.330200	94.907494
580.275452	93.357239
580.220642	85.687119
580.165833	88.728851
580.111084	110.123169
580.056274	87.162643
580.001465	94.788696
579.946655	91.711845
579.891907	90.164482
579.837036	88.617767
579.782288	76.378670
579.727478	71.780952
579.672668	80.927574
579.617859	108.389763
579.563110	85.472656
579.508240	103.766548
579.453491	119.001465
579.398682	103.723190
579.343872	89.976311
579.289062	94.531616
579.234192	97.560631
579.179443	88.395844
579.124573	105.138588
579.069763	91.405746
579.014954	97.479073
578.960144	73.094017
578.905396	103.528206
578.850525	91.329315
578.795776	86.744705
578.740906	106.506302
578.686096	97.356819
578.631226	104.940865
578.576416	86.672142
578.521606	92.734993
578.466797	112.474648
578.411987	103.333450
578.357117	94.196075
578.302307	68.353813
578.247498	112.380516
578.192627	112.356987
578.137817	103.225349
578.083008	94.097527
578.028137	121.390739
577.973328	101.643456
577.918457	84.937927
577.863647	98.568024
577.808838	98.547379
577.753967	112.168892
577.699097	112.145393
577.644287	101.515778
577.589417	116.642937
577.534607	124.191124
577.479797	119.622475
577.424927	107.486275
577.370056	107.463745
577.315247	102.901451
577.260376	101.366943
577.205505	114.959290
577.150696	105.861359
577.095825	130.030960
577.041016	110.351974
576.986145	111.840187
576.931274	117.860878
576.876404	125.389755
576.821533	131.405060
576.766663	125.337151
576.711853	125.310860
576.656982	129.812927
576.602112	135.822220
576.547241	117.687897
576.492371	120.680199
576.437500	117.638496
576.382629	125.153152
576.327820	114.574005
576.272949	100.984825
576.218079	105.484383
576.163208	105.462234
576.108276	111.465233
576.053467	111.441826
575.998596	120.452347
575.943665	114.405693
575.888794	118.896729
575.833984	123.385864
575.779053	105.307266
575.724182	103.781067
575.669312	120.300591
575.614441	103.737450
575.559570	108.225029
575.504700	99.185425
575.449768	108.179535
575.394897	123.178566
575.339966	97.621017
575.285095	118.622139
575.230225	93.076279
575.175354	111.067680
575.120422	106.542526
575.065552	126.023804
575.010681	101.997810
574.955750	106.475311
574.900879	110.950920
574.846008	101.933449
574.791077	124.392586
574.736206	98.893776
574.681274	115.351784
574.626404	112.331985
574.571533	100.328789
574.516602	118.273224
574.461670	109.267433
574.406738	125.705917
574.351868	94.259590
574.296997	101.719086
574.242126	113.662094
574.187195	94.200050
574.132263	110.624374
574.077332	106.117241
574.022461	97.129128
573.967529	98.602638
573.912598	112.024849
573.857666	120.961342
573.802795	125.414955
573.747803	119.417641
573.692932	125.362099
573.638062	113.398941
573.583069	111.883263
573.528137	128.265762
573.473206	87.977722
573.418335	104.358337
573.363403	122.222557
573.308472	119.216377
573.253601	98.332764
573.198669	104.270332
573.143738	104.248337
573.088806	107.204239
573.033813	95.272552
572.978943	95.252449
572.924011	108.624397
572.869080	108.601471
572.814148	126.427086
572.759155	111.529762
572.704224	102.585724
572.649292	117.428421
572.594360	118.889755
572.539429	115.893036
572.484497	102.499115
572.429565	105.447830
572.374573	108.395294
572.319641	105.403290
572.264771	117.254951
572.209717	120.198029
572.154785	112.754570
572.099915	96.414459
572.044922	115.672905
571.989990	123.061821
571.934998	115.624016
571.880066	105.225258
571.825073	97.794357
571.770142	117.032135
571.715210	117.007393
571.660217	109.578690
571.605286	105.114082
571.550354	103.611687
571.495361	109.509186
571.440430	105.047409
571.385437	93.191360
571.330505	113.876465
571.275513	137.510010
571.220520	125.654602
571.165527	94.590500
571.110657	96.048149
571.055664	106.369286
571.000732	116.686043
570.945679	107.800987
570.890747	115.160240
570.835754	85.613846
570.780762	115.111481
570.725830	113.611633
570.670837	129.814377
570.615906	123.887482
570.560913	126.810318
570.505920	104.670067
570.450928	103.173981
570.395935	100.204926
570.341003	111.970009
570.285950	104.581398
570.231018	94.250587
570.176025	101.592377
570.121033	119.235344
570.066040	86.832031
570.011047	107.413467
569.956055	111.804016
569.901062	104.426346
569.846130	105.874687
569.791077	133.785461
569.736084	138.166672
569.681091	110.215988
569.626099	96.969498
569.571106	95.480011
569.516113	114.551704
569.461060	102.781006
569.406128	110.099144
569.351074	105.672752
569.296143	93.911400
569.241150	99.759689
569.186096	104.138748
569.131104	101.183777
569.076050	109.959023
569.021118	115.798920
568.966064	105.515846
568.911072	114.284561
568.856018	101.076416
568.801025	112.771469
568.746033	115.676025
568.690979	127.362999
568.635986	99.526947
568.580994	109.749046
568.526001	102.410683
568.470947	112.627815
568.415894	106.754333
568.360901	87.724640
568.305847	115.479568
568.250854	122.762299
568.195801	90.591011
568.140808	116.866776
568.085815	113.920883
568.030762	108.055809
567.975708	127.011574
567.920715	116.767418
567.865662	112.364738
567.810608	118.176727
567.755615	105.023636
567.700562	125.418221
567.645569	112.269165
567.590515	118.076202
567.535522	134.082703
567.480469	118.025963
567.425415	134.025650
567.370361	129.627655
567.315369	117.950623
567.260315	126.660736
567.205261	126.633774
567.150208	114.964806
567.095154	110.575508
567.040100	130.916794
566.985107	120.708664
566.929993	143.947144
566.875000	139.555374
566.819946	117.724770
566.764893	124.965103
566.709839	139.466217
566.654785	136.531570
566.599670	145.215408
566.544678	137.925232
566.489624	126.283562
566.434509	143.671356
566.379517	133.484314
566.324463	147.961929
566.269409	130.526810
566.214355	126.149017
566.159241	152.216354
566.104248	152.183884
566.049133	153.600494
565.994080	121.695190
565.939026	144.844315
565.883911	152.054092
565.828857	154.917313
565.773804	134.619019
565.718750	173.664902
565.663635	162.052658
565.608582	131.639679
565.553528	167.768616
565.498413	157.611008
565.443420	140.229385
565.388306	176.333328
565.333191	148.839798
565.278137	151.697495
565.223022	155.998398
565.167969	157.409195
565.112854	151.600327
565.057800	177.551025
565.002747	135.660416
564.947632	160.160522
564.892578	139.930206
564.837524	162.976639
564.782410	171.593597
564.727295	164.348648
564.672241	168.637558
564.617126	167.160477
564.562012	165.684021
564.506958	149.803955
564.451843	151.212036
564.396729	158.378738
564.341675	155.465881
564.286560	158.311020
564.231445	162.593811
564.176392	169.751907
564.121277	168.277328
564.066162	168.241333
564.011047	175.393600
563.955994	192.604202
563.900879	196.874115
563.845703	196.831985
563.790649	186.734894
563.735535	201.056076
563.680420	211.063690
563.625305	216.760513
563.570251	236.806808
563.515076	285.542206
563.460022	354.340820
563.404907	368.607666
563.349792	405.811768
563.294617	430.097015
563.239563	470.138672
563.184387	504.431000
563.129333	558.766907
563.074219	580.133606
563.019043	610.083862
562.963928	648.612122
562.908813	702.870422
562.853699	761.398987
562.798584	751.219543
562.743408	779.670227
562.688293	832.423523
562.633240	875.144287
562.578064	910.698303
562.522949	981.971069
562.467834	1033.206421
562.412659	1095.849731
562.357544	1081.330322
562.302368	1233.908813
562.247253	1273.623291
562.192139	1470.348145
562.137024	1617.035889
562.081909	1817.883179
562.026733	2062.868896
561.971558	2296.338867
561.916443	2629.528076
561.861328	2954.019775
561.806152	3191.423828
561.751038	3316.145264
561.695862	3311.158936
561.640747	3286.231934
561.585571	3348.188965
561.530457	3373.099365
561.475281	3379.492432
561.420105	3398.691895
561.364990	3284.127197
561.309814	3346.017090
561.254700	3389.390137
561.199524	3307.606934
561.144348	3410.680908
561.089233	3199.580078
561.034058	3197.471191
560.978882	3260.719727
560.923767	3225.927002
560.868591	3172.686768
560.813416	3167.744873
560.758240	3172.741943
560.703125	3228.830322
560.647949	3209.689453
560.592773	3231.697510
560.537598	3323.195068
560.482483	3336.660645
560.427307	3344.449219
560.372131	3223.247559
560.316895	2883.859863
560.261780	2503.530029
560.206604	2151.694336
560.151428	1828.334106
560.096252	1587.235718
560.041077	1323.591309
559.985901	1048.738037
559.930725	904.182556
559.875549	779.494995
559.820374	739.724304
559.765198	774.917053
559.710022	654.579041
559.654846	657.265015
559.599670	624.620544
559.544434	624.485962
559.489258	590.449951
559.434082	588.910461
559.378906	605.726990
559.323730	592.891602
559.268555	589.941162
559.213318	554.538025
559.158142	608.026367
559.102966	585.328369
559.047791	566.870544
558.992554	572.387634
558.937378	599.044983
558.882141	572.140747
558.826965	564.972778
558.771790	574.711182
558.716614	552.054382
558.661438	558.975220
558.606201	553.223877
558.550964	531.993591
558.495789	545.949707
558.440613	579.594666
558.385376	545.714050
558.330200	523.097412
558.274963	541.260864
558.219788	560.821960
558.164551	532.595581
558.109314	488.926727
558.054138	490.225800
557.998901	529.441895
557.943726	504.054596
557.888489	494.119476
557.833252	512.257507
557.778076	496.712280
557.722839	490.993591
557.667603	534.366089
557.612427	478.161316
557.557129	518.713928
557.501953	493.372528
557.446716	514.285767
557.391541	514.174561
557.336304	467.839722
557.281006	539.159729
557.225830	511.040894
557.170593	523.528625
557.115356	552.805054
557.060120	548.487854
557.004944	572.150574
556.949707	605.593140
556.894409	569.106445
556.839233	552.207397
556.783997	595.416321
556.728760	582.710938
556.673584	593.761536
556.618286	569.887695
556.563049	572.557312
556.507812	578.018066
556.452576	542.995972
556.397339	530.318237
556.342102	519.041260
556.286804	531.483582
556.231567	507.659088
556.176392	517.309692
556.121094	536.714539
556.065857	489.210358
556.010620	486.317444
555.955383	466.707886
555.900085	431.785339
555.844849	444.224762
555.789612	434.382721
555.734375	446.816101
555.679077	431.411133
555.623840	421.578156
555.568604	425.659912
555.513367	424.176849
555.458069	403.228241
555.402832	426.773193
555.347534	400.273682
555.292297	389.070557
555.237000	404.267761
555.181763	383.346039
555.126526	383.262878
555.071228	366.519714
555.015991	362.276093
554.960754	371.911560
554.905457	346.857147
554.850220	378.685791
554.794922	366.122131
554.739624	339.698669
554.684326	346.556061
554.629150	354.796326
554.573853	342.248688
554.518555	336.633087
554.463318	318.554688
554.408020	332.332703
554.352722	312.878662
554.297424	329.420105
554.242188	343.186707
554.186890	322.359375
554.131653	312.606812
554.076355	376.152985
554.021057	309.705719
553.965759	323.461548
553.910461	334.447327
553.855164	317.794067
553.799866	337.064758
553.744568	356.327026
553.689331	324.490875
553.634033	287.146484
553.578735	313.308044
553.523438	328.418915
553.468140	343.523193
553.412903	339.310516
553.357544	332.341644
553.302246	357.086121
553.247009	390.090271
553.191650	351.418274
553.136353	360.986450
553.081116	360.907898
553.025757	371.847015
552.970459	374.519867
552.915161	378.568176
552.859863	408.764587
552.804565	411.427612
552.749207	401.708008
552.693970	413.999237
552.638611	442.786438
552.583313	499.057312
552.528015	522.315308
552.472717	474.104004
552.417419	500.105103
552.362122	484.886322
552.306824	514.993591
552.251465	554.698853
552.196106	551.832520
552.140808	548.967346
552.085510	569.429504
552.030212	591.254456
551.974854	604.840698
551.919556	577.284363
551.864258	566.191101
551.808960	605.815674
551.753540	544.018921
551.698303	519.239746
551.642944	583.503662
551.587585	520.382629
551.532288	549.020813
551.476929	542.056824
551.421631	563.835022
551.366272	562.343750
551.310974	536.230225
551.255615	538.848450
551.200317	542.832764
551.144958	537.246094
551.089600	534.395325
551.034302	545.210144
550.978943	532.795776
550.923645	542.240295
550.868286	578.991577
550.812927	574.769348
550.757568	629.241760
550.702271	638.656860
550.646912	680.812195
550.591553	717.492920
550.536194	771.886353
550.480896	760.809998
550.425537	748.375183
550.370178	757.751648
550.314819	719.434143
550.259460	648.438965
550.204163	621.057800
550.148804	575.986816
550.093445	552.717468
550.038025	555.318726
549.982727	499.405365
549.927307	521.063782
