#Wave		#Intensity
750.175598	39.182297
750.125549	64.370911
750.075500	64.359932
750.025452	83.933418
749.975342	145.459763
749.925293	25.171434
749.875244	33.556187
749.825134	55.917435
749.775085	41.930920
749.724976	69.872940
749.674927	53.094372
749.624817	44.703419
749.574707	69.837173
749.524658	58.653214
749.474548	27.925335
749.424438	13.960284
749.374390	39.082123
749.324280	44.657661
749.274170	50.231293
749.224060	41.852264
749.174011	47.424469
749.123901	58.573162
749.073730	66.929329
749.023682	39.035442
748.973572	66.906479
748.923401	61.320461
748.873352	75.244080
748.823181	75.231232
748.773071	30.644526
748.723022	11.141561
748.672852	44.558632
748.622803	44.551022
748.572632	47.327374
748.522522	50.102779
748.472351	55.660244
748.422241	50.085663
748.372131	55.641228
748.322021	36.160618
748.271851	55.622219
748.221741	19.464449
748.171570	52.823051
748.121460	69.492134
748.071289	61.142632
748.021179	47.238506
747.971008	52.786953
747.920837	33.333431
747.870728	49.991600
747.820557	61.090401
747.770386	77.738129
747.720276	41.638309
747.670105	69.385315
747.619934	55.498764
747.569763	41.616959
747.519653	36.061863
747.469482	63.790852
747.419312	41.595615
747.369141	41.588501
747.318970	55.441856
747.268799	36.031044
747.218628	55.422894
747.168457	41.560062
747.118286	38.782757
747.068115	16.618340
747.017944	80.308235
746.967712	27.687757
746.917542	41.524532
746.867371	60.892231
746.817139	52.579746
746.767029	66.405159
746.716797	27.664083
746.666626	30.425285
746.616394	63.605621
746.566223	35.944851
746.516052	19.351608
746.465820	44.224678
746.415649	69.089233
746.365417	66.314316
746.315186	52.489845
746.265015	30.383657
746.214783	30.378458
746.164551	52.462898
746.114319	33.128792
746.064148	33.123119
746.013916	44.156601
745.963745	35.871094
745.913513	46.900326
745.863281	49.650665
745.813049	49.642162
745.762817	63.420792
745.712585	57.896027
745.662354	71.668518
745.612122	46.852161
745.561951	49.599674
745.511658	63.366508
745.461487	41.318905
745.411194	44.065948
745.360962	52.319351
745.310730	24.778606
745.260437	52.301430
745.210205	57.796940
745.159973	24.765873
745.109741	35.766800
745.059509	57.767239
745.009216	44.005592
744.958923	46.747932
744.908691	8.248221
744.858398	30.238295
744.808228	49.472366
744.757935	10.991976
744.707642	57.697979
744.657410	93.399765
744.607117	65.917946
744.556885	41.191654
744.506592	38.438953
744.456299	71.374390
744.406006	38.425777
744.355774	13.721139
744.305481	41.156361
744.255249	49.379162
744.204895	65.827599
744.154602	60.331615
744.104309	49.353767
744.054077	35.638275
744.003784	24.668421
743.953430	54.809311
743.903198	71.239883
743.852905	27.395256
743.802551	32.868668
743.752258	30.124445
743.701965	52.024208
743.651733	35.589405
743.601379	43.794827
743.551086	54.734142
743.500793	41.043564
743.450500	32.829220
743.400146	65.647171
743.349854	32.817951
743.299561	30.077961
743.249207	57.411709
743.198853	46.468170
743.148560	46.460194
743.098267	35.522285
743.047913	49.176262
742.997559	32.778549
742.947266	60.083687
742.896912	13.653040
742.846619	35.491810
742.796265	62.782421
742.745972	40.938026
742.695557	79.133263
742.645264	54.565296
742.594910	60.011517
742.544556	21.818623
742.494202	54.537189
742.443909	62.707001
742.393494	54.518459
742.343201	76.312737
742.292847	19.074907
742.242432	46.316818
742.192078	49.032913
742.141785	21.788662
742.091431	46.292953
742.041016	59.898239
741.990723	27.221794
741.940308	29.938829
741.889954	62.588615
741.839600	57.136307
741.789185	62.567108
741.738831	27.198416
741.688477	54.387486
741.638062	40.783604
741.587769	51.650352
741.537292	46.205532
741.486938	54.350105
741.436584	67.925957
741.386169	46.181709
741.335754	62.470394
741.285400	29.872009
741.234985	48.873066
741.184631	43.435257
741.134277	37.999317
741.083862	32.565243
741.033447	43.412857
740.983093	40.692554
740.932617	48.822670
740.882202	43.390465
740.831848	32.537251
740.781433	62.352341
740.731018	40.657578
740.680603	59.620853
740.630188	40.643589
740.579834	43.345707
740.529358	43.338249
740.478943	54.163490
740.428528	46.031048
740.378113	56.852100
740.327698	32.481323
740.277283	43.300980
740.226868	45.999374
740.176392	45.991459
740.125977	56.803204
740.075562	48.680080
740.025146	54.079670
739.974670	40.552773
739.924255	37.842739
739.873779	24.323288
739.823364	32.425468
739.772949	27.016573
739.722473	43.219074
739.672058	43.211636
739.621582	32.403145
739.571167	56.695744
739.520691	35.091320
739.470276	56.676220
739.419800	48.571251
739.369324	32.375259
739.318848	29.672209
739.268433	59.334198
739.217896	59.323978
739.167480	45.833363
739.117004	43.129852
739.066589	24.256363
739.016113	26.946871
738.965576	43.107567
738.915161	59.262695
738.864685	32.319538
738.814209	35.006798
738.763733	51.154968
738.713257	53.838058
738.662720	45.754463
738.612244	45.746578
738.561768	32.286137
738.511292	43.040764
738.460754	51.102100
738.410278	37.647690
738.359802	24.197914
738.309326	32.258324
738.258850	37.628223
738.208313	21.498137
738.157837	26.868038
738.107361	42.981449
738.056824	37.602283
738.006287	61.764530
737.955811	51.014072
737.905273	32.213860
737.854736	48.312458
737.804260	34.886314
737.753784	42.929596
737.703247	37.556919
737.652710	48.279137
737.602173	48.270809
737.551697	67.031227
737.501160	48.254162
737.450623	58.967133
737.400085	66.996544
737.349609	45.549793
737.299072	18.752562
737.248535	45.534077
737.197998	66.950325
737.147461	72.293869
737.096924	18.739622
737.046387	26.766268
736.995850	66.904121
736.945312	53.514061
736.894775	45.479099
736.844177	42.796471
736.793640	42.789085
736.743042	69.520264
736.692566	32.080734
736.641968	40.093998
736.591431	48.104488
736.540833	45.424175
736.490295	48.087879
736.439758	45.408489
736.389221	53.412529
736.338623	24.031488
736.288086	40.045563
736.237488	53.384865
736.186890	42.700516
736.136353	61.371387
736.085815	61.360790
736.035217	56.015392
735.984619	64.006531
735.934082	45.330128
735.883423	31.992210
735.832886	55.976696
735.782288	55.967026
735.731689	47.963448
735.681152	21.313404
735.630554	18.646006
735.579895	53.265099
735.529358	34.616329
735.478760	50.584354
735.428162	50.575615
735.377563	53.228287
735.326965	37.253361
735.276367	55.870384
735.225769	74.480965
735.175110	55.851070
735.124512	31.909380
735.073914	29.245209
735.023315	63.796696
734.972717	37.208305
734.922058	37.201870
734.871521	58.449974
734.820862	21.250860
734.770264	37.182575
734.719604	26.554390
734.669006	34.514736
734.618408	23.890684
734.567749	37.156860
734.517090	55.725651
734.466492	58.369156
734.415833	42.442951
734.365173	26.522255
734.314575	26.517668
734.263916	66.282700
734.213257	50.366135
734.162659	37.105469
734.112000	26.499319
734.061401	39.742100
734.010742	31.788179
733.960022	50.322575
733.909424	82.091042
733.858826	37.066956
733.808105	29.118998
733.757446	68.814804
733.706848	23.816387
733.656189	34.395493
733.605469	31.744190
733.554810	-7.934673
733.504150	44.955364
733.453491	42.303608
733.402832	60.800903
733.352173	58.147316
733.301453	47.566841
733.250793	18.495012
733.200134	44.908680
733.149475	36.977215
733.098755	44.893124
733.048096	47.525665
732.997437	36.958004
732.946716	50.148602
732.896057	47.500973
732.845398	47.492741
732.794678	68.588745
732.744019	34.288429
732.693298	55.379406
732.642639	31.639891
732.591919	42.179211
732.541199	60.622112
732.490540	42.164597
732.439819	71.140427
732.389099	23.709364
732.338379	47.410511
732.287720	50.035755
732.236938	65.825104
732.186279	36.855671
732.135559	44.745556
732.084839	15.789811
732.034119	49.992401
731.983398	39.460842
731.932739	28.932934
731.881958	55.226025
731.831238	23.664192
731.780518	23.660088
731.729797	23.655985
731.679077	47.303764
731.628357	57.805687
731.577576	39.406132
731.526855	42.025917
731.476135	52.523285
731.425354	36.759922
731.374634	26.252531
731.323914	55.120750
731.273193	68.232903
731.222412	55.101627
731.171692	36.728046
731.120911	57.705486
731.070190	70.808075
731.019470	36.708927
730.968689	18.351278
730.917908	44.559658
730.867188	49.793327
730.816406	47.164436
730.765686	47.156250
730.714905	34.051380
730.664124	31.426588
730.613342	41.894844
730.562622	57.595409
730.511841	39.262779
730.461060	36.638897
730.410278	23.549488
730.359558	47.090797
730.308777	39.235516
730.257996	28.767715
730.207214	39.221889
730.156433	20.914709
730.105591	28.752729
730.054871	62.722332
730.004089	70.550369
729.953308	65.313065
729.902527	18.284483
729.851685	39.174225
729.800903	23.500452
729.750122	33.939201
729.699280	52.205082
729.648499	36.537209
729.597717	62.624332
729.546936	36.524513
729.496094	49.560368
729.445312	59.983700
729.394470	46.935608
729.343689	28.677885
729.292908	41.706039
729.242065	46.911137
729.191284	39.085819
729.140442	39.079025
729.089600	49.491493
729.038757	7.813087
728.987976	54.682102
728.937195	39.051853
728.886292	52.060085
728.835449	67.666344
728.784668	44.235683
728.733826	39.024700
728.682983	78.035820
728.632202	54.615574
728.581299	52.005787
728.530457	51.996742
728.479675	36.391388
728.428772	25.989326
728.377991	28.583286
728.327148	20.784227
728.276306	25.975765
728.225403	44.151115
728.174561	51.933453
728.123718	54.520638
728.072876	28.553459
728.022034	23.357855
727.971191	12.974328
727.920288	46.699451
727.869446	36.315475
727.818604	38.902664
727.767761	38.895893
727.716858	75.185638
727.666016	46.658821
727.615112	49.242405
727.564270	46.642578
727.513428	41.452850
727.462524	64.758804
727.411621	31.078812
727.360779	46.610100
727.309875	56.957981
727.258972	41.416771
727.208130	36.233364
727.157227	33.639408
727.106323	43.982330
727.055481	56.908398
727.004578	25.862947
726.953674	12.929221
726.902832	31.024725
726.851868	31.019320
726.801025	31.013916
726.750122	51.680855
726.699219	12.917962
726.648315	20.665138
726.597412	38.740379
726.546509	36.151386
726.495605	74.871971
726.444702	28.394762
726.393799	23.228029
726.342896	56.769730
726.291931	30.959909
726.241028	41.272682
726.190125	38.686394
726.139221	56.730156
726.088318	38.672909
726.037354	38.666164
725.986450	28.350243
725.935547	51.536911
725.884583	30.916754
725.833618	33.487309
725.782715	51.509953
725.731812	28.325533
725.680847	48.917385
725.629883	38.612255
725.578979	36.031818
725.528076	30.879028
725.477112	33.446445
725.426147	38.585320
725.375183	59.153831
725.324219	15.428742
725.273315	48.849159
725.222351	48.840637
725.171448	35.981556
725.120422	41.114605
725.069519	59.091927
725.018555	35.962723
724.967590	56.502987
724.916626	38.518040
724.865662	33.376472
724.814697	64.174324
724.763733	41.064396
724.712769	48.755459
724.661804	51.312576
724.610840	25.651808
724.559875	53.859390
724.508911	35.899990
724.457886	58.968258
724.406921	51.267792
724.355957	35.881187
724.304993	51.249886
724.254028	30.744562
724.203003	38.423988
724.152039	28.172670
724.101013	30.728455
724.050049	35.843601
723.999023	25.598099
723.948059	40.949802
723.897034	35.824818
723.846069	40.935497
723.795044	30.696257
723.744080	33.248466
723.693054	30.685530
723.642029	63.917015
723.591064	35.787273
723.540039	25.557871
723.489075	40.885445
723.438049	45.988087
723.386963	43.425602
723.335999	66.404015
723.284973	30.642651
723.233948	33.190399
723.182922	22.973951
723.131897	56.148731
723.080933	58.690681
723.029846	63.783066
722.978882	43.364899
722.927795	45.907745
722.876770	35.699780
722.825745	45.891689
722.774719	40.785480
722.723694	66.264809
722.672668	10.192803
722.621643	45.859589
722.570557	56.040806
722.519531	53.484138
722.468506	33.103436
722.417419	61.103340
722.366394	35.637379
722.315369	53.446716
722.264343	20.357090
722.213257	27.986101
722.162170	55.962406
722.111145	66.125816
722.060120	30.514265
722.009033	33.051334
721.958008	30.503584
721.906921	50.830406
721.855835	20.328604
721.804810	25.406305
721.753723	48.263531
721.702637	30.476892
721.651611	30.471556
721.600464	35.543922
721.549438	38.076107
721.498352	76.138878
721.447266	27.912699
721.396179	35.519032
721.345093	35.512810
721.294006	38.042774
721.242920	30.428890
721.191895	50.705933
721.140747	32.953083
721.089661	45.619350
721.038635	17.737751
720.987488	25.335203
720.936401	35.463070
720.885315	40.522121
720.834229	43.047211
720.783142	32.912685
720.731995	60.751232
720.680908	30.370293
720.629761	45.547455
720.578674	35.419590
720.527527	50.590542
720.476440	60.698009
720.425354	70.801933
720.374207	32.866562
720.323120	60.666092
720.272034	42.964283
720.220886	30.322411
720.169800	35.369942
720.118652	35.363739
720.067566	35.357540
720.016418	35.351337
719.965271	25.246527
719.914185	68.153664
719.862976	32.808971
719.811890	20.186596
719.760742	27.751699
719.709595	35.314148
719.658447	37.829948
719.607300	37.823315
719.556213	42.858902
719.505066	40.330711
719.453918	37.803406
719.402771	55.435268
719.351624	32.751453
719.300476	32.745708
719.249329	42.813793
719.198120	47.842312
719.147034	25.175745
719.095886	30.205591
719.044678	60.400578
718.993530	47.808727
718.942383	47.800335
718.891235	40.245846
718.840027	32.694008
718.788879	42.746197
718.737732	35.196568
718.686584	35.190388
718.635376	42.723682
718.584167	52.767044
718.533020	32.659576
718.481812	55.260345
718.430664	37.670891
718.379456	30.131418
718.328308	60.252251
718.277100	25.100693
718.225952	42.663681
718.174744	17.564312
718.123535	50.174931
718.072388	25.083057
718.021179	57.680897
717.969971	32.596516
717.918762	57.660625
717.867615	55.143948
717.816406	20.048820
717.765198	40.090591
717.713989	50.104431
717.662781	40.076500
717.611572	32.556431
717.560364	32.550709
717.509155	50.069210
717.457947	57.569466
717.406738	42.543865
717.355530	32.527821
717.304321	47.532303
717.253113	42.521423
717.201904	35.011486
717.150635	15.002283
717.099426	32.499229
717.048218	54.989025
716.997009	47.482166
716.945740	54.969681
716.894531	27.480005
716.843323	54.950340
716.792114	42.454155
716.740784	27.465504
716.689575	44.935642
716.638367	57.407661
716.587158	47.415375
716.535889	39.921711
716.484619	32.430683
716.433411	39.907661
716.382141	49.875797
716.330872	34.906910
716.279663	37.393681
716.228394	29.909678
716.177185	17.444241
716.125854	69.764679
716.074646	42.349667
716.023376	39.851494
715.972107	37.354195
715.920837	22.408571
715.869629	24.894028
715.818298	9.955857
715.767090	44.793468
715.715820	17.416615
715.664551	37.314743
715.613281	57.205860
715.562012	32.328053
715.510681	24.863352
715.459412	47.232044
715.408142	34.796429
715.356873	27.335234
715.305603	39.753334
715.254333	44.714622
715.203003	34.771912
715.151733	24.832703
715.100403	52.139484
715.049133	47.165504
714.997864	42.193275
714.946533	19.852160
714.895264	52.102734
714.843994	27.287098
714.792664	37.203117
714.741394	37.196560
714.690063	29.752003
714.638794	39.662342
714.587463	27.263052
714.536194	52.038467
714.484863	44.596535
714.433594	42.111523
714.382263	56.964363
714.330933	49.525494
714.279602	69.323463
714.228271	42.081821
714.176941	51.974255
714.125671	22.270752
714.074341	32.163189
714.023010	39.578480
713.971680	51.937588
713.920349	49.455643
713.869019	34.612843
713.817749	44.494370
713.766357	34.600628
713.715027	44.478668
713.663696	64.235626
713.612366	32.112144
713.560974	56.803768
713.509705	32.100811
713.458313	39.501713
713.406982	17.278950
713.355652	46.891724
713.304321	49.350998
713.252930	39.473827
713.201599	49.333572
713.150269	46.858616
713.098938	39.452919
713.047546	29.584465
712.996216	44.368858
712.944824	54.219028
712.893494	29.568792
712.842102	22.172676
712.790710	36.947933
712.739380	39.404167
712.688049	32.010231
712.636658	81.242378
712.585266	46.767651
712.533875	63.986534
712.482544	39.369370
712.431152	24.601509
712.379761	9.838864
712.328430	49.185627
712.277039	22.129622
712.225647	49.168243
712.174255	44.243599
712.122864	66.353668
712.071472	22.113979
712.020081	49.133488
711.968689	54.037281
711.917297	29.469669
711.865906	36.830574
711.814514	56.463562
711.763123	53.999073
711.711731	56.443592
711.660339	26.989988
711.608948	63.783234
711.557495	46.602581
711.506104	26.975670
711.454712	22.067099
711.403259	36.771992
711.351868	41.667553
711.300476	34.308384
711.249084	26.951818
711.197632	53.894100
711.146240	63.681759
711.094788	53.875031
711.043335	19.587454
710.991943	44.063969
710.940552	39.161041
710.889099	53.836903
710.837708	24.466988
710.786255	56.264111
710.734802	63.591652
710.683411	36.680996
710.631958	26.894636
710.580566	24.445339
710.529053	41.549721
710.477661	56.204372
710.426208	21.989122
710.374817	36.642048
710.323364	12.211853
710.271912	39.071007
710.220398	31.739571
710.169006	24.410730
710.117554	29.287689
710.066101	41.483543
710.014648	26.837538
709.963196	36.590160
709.911682	34.144764
709.860291	26.823277
709.808838	36.570713
709.757324	48.752312
709.705872	7.311551
709.654419	41.424782
709.602966	43.853760
709.551453	41.410099
709.500000	43.838215
709.448547	24.350248
709.397095	46.257271
709.345581	29.209940
709.294067	31.638491
709.242676	26.766285
709.191101	48.657345
709.139648	38.918976
709.088196	38.912075
709.036682	41.336746
708.985168	29.173706
708.933716	43.752800
708.882202	41.314758
708.830750	38.877583
708.779236	21.864761
708.727783	41.292778
708.676270	33.999786
708.624756	41.278130
708.573242	48.553890
708.521790	29.127167
708.470215	41.256165
708.418701	46.101650
708.367249	24.259722
708.315735	12.127708
708.264221	46.077110
708.212708	36.370213
708.161194	48.485008
708.109680	72.714607
708.058167	31.504070
708.006653	26.652557
707.955139	58.140713
707.903625	41.175694
707.852112	58.120071
707.800598	36.318596
707.749084	16.945667
707.697510	45.987217
707.645935	24.199501
707.594482	41.131847
707.542908	38.705452
707.491333	24.186611
707.439819	36.273472
707.388306	33.849228
707.336792	38.677959
707.285217	55.589691
707.233704	33.831192
707.182129	62.818192
707.130615	53.144413
707.079041	43.474068
707.027466	41.051544
706.975952	45.872986
706.924377	41.036957
706.872803	48.270191
706.821289	31.370049
706.769714	21.713865
706.718201	24.122229
706.666626	26.529736
706.615051	33.759117
706.563477	57.862480
706.511902	21.694572
706.460327	24.100796
706.408813	28.915812
706.357178	60.230564
706.305603	38.540707
706.254028	40.942219
706.202454	48.158749
706.150879	62.595242
706.099304	33.699135
706.047791	31.286488
705.996155	64.968071
705.944580	45.710140
705.893005	43.296638
705.841431	38.479053
705.789795	43.281235
705.738220	50.485790
705.686646	26.440231
705.635010	50.467823
705.583435	43.250439
705.531860	45.645115
705.480225	38.431149
705.428650	26.416714
705.377014	28.813103
705.325439	40.811298
705.273865	43.204269
705.222229	50.396008
705.170654	47.987652
705.119019	45.580154
705.067383	43.173512
705.015808	55.156330
704.964172	55.146507
704.912598	19.177979
704.860962	52.730049
704.809326	2.396394
704.757690	4.791934
704.706055	38.328640
704.654480	28.741358
704.602844	21.552179
704.551208	19.154079
704.499573	57.452003
704.447937	38.294510
704.396301	26.322784
704.344666	28.710649
704.293030	16.744894
704.241394	38.267223
704.189758	50.216782
704.138123	43.035282
704.086487	21.513807
704.034851	19.119974
703.983154	47.791416
703.931519	62.117767
703.879883	45.385662
703.828247	16.718052
703.776611	28.654408
703.724915	40.586506
703.673279	35.805237
703.621582	54.891575
703.569946	50.109459
703.518311	38.171825
703.466614	45.320957
703.414978	54.852428
703.363342	45.304794
703.311646	40.528637
703.259949	19.068897
703.208313	33.364616
703.156616	19.062094
703.104919	47.646732
703.053284	7.145735
703.001587	45.248245
702.949890	26.191677
702.898254	33.328915
702.846558	54.744873
702.794922	26.177658
702.743225	38.069798
702.691528	33.305126
702.639832	30.920668
702.588135	45.183678
702.536438	40.420284
702.484741	38.035828
702.433044	49.913113
702.381348	35.645859
702.329651	11.879831
702.277954	40.384212
702.226257	35.626766
702.174561	37.995098
702.122864	56.982468
702.071167	59.346134
702.019409	33.227898
701.967712	30.848967
701.916016	16.608015
701.864319	40.326542
701.812561	47.434517
701.760864	40.312134
701.709106	26.079662
701.657471	47.409096
701.605713	49.770653
701.554016	33.174507
701.502258	28.430210
701.450500	18.950085
701.398804	26.051710
701.347107	49.726192
701.295349	37.879852
701.243652	26.037743
701.191895	33.133018
701.140198	44.958202
701.088440	33.121174
701.036682	33.115250
700.984924	56.758850
700.933228	40.196999
700.881470	21.276957
700.829712	59.092091
700.777954	14.179565
700.726196	33.079735
700.674438	30.711401
700.622681	44.877865
700.570984	18.892563
700.519226	30.694921
700.467468	47.214508
700.415710	28.323637
700.363953	4.719761
700.312134	30.672960
700.260437	47.180725
700.208679	49.530895
700.156860	28.298304
700.105103	23.577698
700.053345	18.858782
700.001526	28.283110
699.949768	32.991055
699.898010	32.985149
699.846252	30.623583
699.794434	4.710477
699.742676	35.322254
699.690918	35.315929
699.639099	58.849339
699.587341	23.535521
699.535522	49.415741
699.483826	61.170437
699.432007	28.227453
699.380249	28.222397
699.328369	44.677456
699.276611	39.967407
699.224854	56.414463
699.173035	42.303268
699.121216	18.798084
699.069458	44.637451
699.017639	16.442429
698.965820	14.090985
698.914062	44.613457
698.862183	39.910149
698.810425	28.166821
698.758606	11.734072
698.706787	35.195908
698.654968	35.189598
698.603149	32.837734
698.551331	30.486717
698.499512	46.894234
698.447693	44.541534
698.395874	53.909031
698.344055	18.747604
698.292236	84.349091
698.240417	23.426102
698.188599	32.790661
698.136780	32.784779
698.084961	21.072149
698.033142	32.773018
697.981262	28.086121
697.929443	49.141891
697.877625	46.793407
697.825745	39.767258
697.773926	25.727139
697.722046	25.722523
697.670227	46.759830
697.618408	44.413868
697.566528	35.057285
697.514709	30.377529
697.462830	25.699450
697.411011	37.374306
697.359131	32.696648
697.307312	42.031002
697.255432	32.684910
697.203613	42.015911
697.151733	4.667596
697.099854	58.334480
697.047974	39.660324
696.996094	13.995248
696.944275	23.321224
696.892395	30.312145
696.840515	32.637985
696.788696	39.624722
696.736816	46.608948
696.684875	27.960344
696.633057	39.603371
696.581177	53.571407
696.529297	51.233009
696.477417	37.253674
696.425537	48.886662
696.373596	27.930216
696.321777	44.214893
696.269897	34.900223
696.218018	30.241425
696.166138	23.258453
696.114197	32.555981
696.062317	30.225119
696.010437	44.167233
695.958496	44.159294
695.906616	37.180088
695.854736	39.496742
695.802795	27.875038
695.750916	48.772545
695.699036	37.153355
695.647095	34.825005
695.595215	27.854994
695.543335	44.095806
695.491394	18.563316
695.439453	46.399944
695.387573	2.319580
695.335632	51.021576
695.283752	51.012398
695.231812	48.684891
695.179932	41.722397
695.127991	18.539951
695.076050	13.902461
695.024170	426.265411
694.972229	1693.173584
694.920288	1926.767334
694.868347	2081.552979
694.816406	1928.388794
694.764526	41.662365
694.712585	43.969025
694.660645	53.216080
694.608643	23.133261
694.556763	55.509827
694.504761	25.437424
694.452881	50.865685
694.400940	34.674904
694.348938	50.847366
694.296997	34.662415
694.245056	50.829052
694.193115	60.059879
694.141174	43.882008
694.089233	36.946613
694.037292	32.322460
693.985352	27.699976
693.933350	30.002901
693.881409	25.382496
693.829468	53.062927
693.777466	16.146677
693.725525	41.512543
693.673584	32.281715
693.621582	13.832527
693.569641	50.710125
693.517639	34.568851
693.465698	13.825048
693.413696	46.075188
693.361755	36.853504
693.309753	46.058575
693.257751	23.025135
693.205811	36.833572
693.153809	39.128616
693.101807	34.519024
693.049866	29.911091
692.997803	36.807011
692.945862	16.100163
692.893860	18.396868
692.841858	27.590322
692.789917	18.390230
692.737915	22.983641
692.685913	22.979494
692.633911	43.653164
692.581909	25.268324
692.529907	25.263763
692.477905	45.925827
692.425903	45.917538
692.373901	18.363701
692.321899	78.031647
692.269897	39.008778
692.217896	25.236420
692.165833	32.113281
692.113831	43.574440
692.061829	22.929775
692.009827	29.803328
691.957825	13.752898
691.905762	4.583472
691.853760	32.078506
691.801697	57.272705
691.749695	34.357418
691.697693	45.801617
691.645630	25.186338
691.593628	38.917309
691.541565	32.043762
691.489563	34.326397
691.437561	27.456158
691.385498	32.026398
691.333435	43.456543
691.281433	50.309010
691.229370	45.727200
691.177368	34.289200
691.125305	18.284269
691.073242	29.706568
691.021179	43.409443
690.969177	47.970188
690.917114	50.245396
690.865051	13.700813
690.812988	47.944176
690.760986	41.087578
690.708923	52.491302
690.656860	41.072723
690.604797	18.251242
690.552734	18.247942
690.500671	43.331024
690.448608	18.241343
690.396606	47.874863
690.344482	52.424889
690.292419	47.857544
690.240356	31.899258
690.188293	13.668637
690.136169	22.776941
690.084167	31.881948
690.032043	45.537399
689.979980	15.935205
689.927856	36.416737
689.875793	25.031975
689.823730	43.229221
689.771606	18.198484
689.719543	11.371994
689.667480	45.479740
689.615417	27.282906
689.563293	25.004803
689.511230	22.727522
689.459106	34.085114
689.407043	45.438587
689.354919	40.887325
689.302856	27.253279
689.250732	24.977650
689.198669	49.946251
689.146545	34.048096
689.094421	49.928162
689.042358	34.035763
688.990234	45.372795
688.938110	47.632805
688.886047	22.678179
688.833862	45.348137
688.781738	31.737946
688.729675	20.399267
688.677551	24.927921
688.625427	40.783752
688.573303	33.980301
688.521179	31.709198
688.469055	20.380791
688.416992	24.905338
688.364807	33.955669
688.312683	27.159611
688.260559	40.732033
688.208435	31.674725
688.156311	42.979332
688.104187	20.354940
688.052063	24.873749
687.999878	45.216797
687.947754	42.948166
687.895630	29.380259
687.843445	65.528687
687.791382	33.888000
687.739197	45.175804
687.687073	40.650848
687.634949	36.127533
687.582764	40.636101
687.530640	42.885880
687.478455	13.540452
687.426331	60.920975
687.374146	31.582922
687.321960	18.044109
687.269836	31.571459
687.217651	22.546949
687.165466	33.814285
687.113342	45.077530
687.061218	24.788141
687.009033	18.024466
686.956848	33.789738
686.904663	20.270161
686.852539	42.784794
686.800354	29.268490
686.748169	27.012161
686.696045	13.503628
686.643799	4.500392
686.591614	20.248085
686.539490	42.738194
686.487305	53.975281
686.435120	38.225544
686.382935	33.722294
686.330688	15.734211
686.278564	33.710041
686.226379	40.444698
686.174133	33.697792
686.121948	20.215000
686.069763	26.948437
686.017578	31.434128
685.965393	22.448868
685.913208	26.933744
685.861023	33.661060
685.808777	49.360580
685.756592	33.648823
685.704407	38.128399
685.652161	35.879028
685.599976	35.872505
685.547729	11.208119
685.495544	40.341892
685.443359	26.889704
685.391113	22.404011
685.338867	44.799873
685.286682	44.791725
685.234497	26.870146
685.182251	51.491745
685.130005	35.813828
685.077820	51.473011
685.025574	38.038345
684.973328	17.897141
684.921082	29.077562
684.868896	40.253914
684.816650	26.831059
684.764404	38.003746
684.712219	31.291508
684.659973	15.642906
684.607727	26.811529
684.555481	15.637211
684.503235	51.370056
684.451050	44.661480
684.398804	58.049355
684.346497	40.180695
684.294312	11.159272
684.242004	37.934616
684.189758	29.003540
684.137512	46.843342
684.085266	26.762749
684.033020	35.677166
683.980774	46.817749
683.928528	31.206146
683.876282	57.943714
683.824036	35.651173
683.771729	40.100262
683.719482	33.410797
683.667175	35.631687
683.614929	24.492323
683.562683	28.940197
683.510376	40.063740
683.458130	6.676073
683.405823	42.274086
683.353577	8.898186
683.301331	26.689690
683.249023	33.356030
683.196716	53.359917
683.144470	28.898018
683.092163	37.782825
683.039917	48.886505
682.987610	28.882214
682.935364	42.204765
682.883057	28.871679
682.830750	39.968880
682.778442	64.382561
682.726196	28.855883
682.673889	51.043404
682.621643	53.252964
682.569275	48.806309
682.517029	28.834831
682.464722	31.047228
682.412415	19.955290
682.360107	48.770699
682.307800	39.896015
682.255493	31.024570
682.203186	50.959633
682.150879	22.152319
682.098572	39.866894
682.046204	44.288464
681.993958	33.210281
681.941650	30.990604
681.889343	64.183105
681.837036	35.404900
681.784668	28.761229
681.732300	35.391972
681.679993	30.962318
681.627686	57.490948
681.575378	30.951010
681.523010	37.576504
681.470703	28.729725
681.418396	41.981926
681.366089	35.346741
681.313721	11.043839
681.261414	26.500370
681.209045	30.911449
681.156738	41.943588
681.104370	19.864384
681.052002	19.860754
680.999695	15.444429
680.947388	24.265381
680.895020	28.672028
680.842651	44.102745
680.790344	22.047342
680.737976	37.473629
680.685608	33.058922
680.633240	39.663452
680.580933	24.234344
680.528564	30.838070
680.476196	44.046329
680.423828	55.047844
680.371460	61.642307
680.319092	41.821056
680.266724	37.411995
680.214355	37.405151
680.161987	37.398308
680.109619	41.790462
680.057312	30.787338
680.004883	48.371250
679.952515	28.577782
679.900146	50.551437
679.847778	24.172350
679.795410	41.744598
679.742981	50.523685
679.690674	43.925598
679.638245	28.546413
679.585876	28.541187
679.533447	15.365518
679.481140	39.504097
679.428711	35.108322
679.376282	30.714159
679.323914	41.675869
679.271545	35.089039
679.219116	2.192663
679.166748	30.691666
679.114380	10.959301
679.061951	48.212093
679.009583	19.719515
678.957153	28.478527
678.904785	21.902546
678.852356	17.518826
678.799927	50.357395
678.747559	26.268610
678.695129	48.150291
678.642700	21.882486
678.590332	30.629866
678.537903	37.186592
678.485474	41.553867
678.433044	24.053091
678.380676	37.166145
678.328186	21.858431
678.275757	28.410749
678.223389	39.330750
678.170959	48.062099
678.118530	30.579365
678.066101	26.206078
678.013672	28.384710
677.961243	32.745583
677.908813	19.643745
677.856384	39.280285
677.803955	17.454702
677.751526	17.451500
677.699097	21.810373
677.646606	34.890194
677.594177	6.540711
677.541748	28.337881
677.489319	21.794371
677.436829	34.864594
677.384399	41.394104
677.331970	45.742981
677.279480	41.378910
677.227051	6.532313
677.174622	34.832607
677.122192	37.002850
677.069702	23.938625
677.017212	41.340942
676.964783	45.684231
676.912354	34.800644
676.859863	30.444971
676.807434	21.742414
676.754944	49.998367
676.702454	21.734428
676.649963	36.941742
676.597534	26.071733
676.545044	13.033471
676.492615	28.234001
676.440125	60.800522
676.387634	52.105156
676.335205	23.877142
676.282715	56.426510
676.230225	41.227180
676.177734	45.558510
676.125244	30.366756
676.072754	34.698486
676.020264	10.841284
675.967773	26.014297
675.915283	32.511894
675.862793	4.334122
675.810303	38.999928
675.757812	38.992760
675.705322	32.487991
675.652832	25.985613
675.600342	21.650696
675.547852	10.823357
675.495361	32.464096
675.442810	45.441376
675.390320	21.634771
675.337830	21.630791
675.285278	21.626812
675.232788	23.785116
675.180298	36.752052
675.127808	25.937851
675.075256	54.027245
675.022766	21.606922
674.970276	34.564713
674.917725	17.279175
674.865234	36.711491
674.812683	45.341141
674.760132	21.587044
674.707642	17.266457
674.655090	30.210735
674.602600	21.575123
674.550049	32.356728
674.497498	25.880615
674.445007	6.468962
674.392456	30.182930
674.339905	32.332897
674.287415	40.947460
674.234863	28.011524
674.182312	23.697693
674.129822	34.463020
674.077271	45.224380
674.024658	40.909760
673.972168	4.305497
673.919617	45.199390
673.867065	40.887150
673.814514	23.667145
673.761963	15.058135
673.709412	30.110720
673.656860	34.405907
673.604309	36.549538
673.551758	36.542801
673.499146	25.790163
673.446655	2.148784
673.394104	53.709698
673.341492	15.035942
673.288940	27.918743
673.236389	30.060795
673.183777	47.229679
673.131287	19.317669
673.078674	15.022083
673.026123	47.203552
672.973511	30.033083
672.920959	27.882719
672.868408	47.177433
672.815796	38.592598
672.763245	21.436375
672.710632	36.435116
672.658081	27.857004
672.605469	25.709414
672.552917	29.988779
672.500305	32.124905
672.447754	32.118977
672.395142	38.535656
672.342529	38.528542
672.289978	34.241272
672.237366	23.536528
672.184753	12.835735
672.132141	36.361202
672.079590	32.077488
672.026978	10.690522
671.974365	29.927933
671.921814	29.922405
671.869202	19.232279
671.816589	38.457455
671.763977	32.041958
671.711365	10.678679
671.658752	46.977512
671.606140	14.944628
671.553528	34.152840
671.500916	32.012371
671.448303	38.407745
671.395691	44.800755
671.343079	21.329750
671.290466	42.651615
671.237793	31.982800
671.185181	31.976887
671.132568	6.394195
671.079956	25.572052
671.027344	19.175493
670.974731	23.432381
670.922058	23.428047
670.869446	12.776572
670.816772	14.903244
670.764160	19.157770
670.711548	29.795465
670.658875	31.917807
670.606262	25.529524
670.553589	55.303734
670.500977	40.406792
670.448303	40.399315
670.395691	53.147160
670.343018	25.505917
670.290405	25.501196
670.237732	25.496477
670.185120	25.491758
670.132446	25.487041
670.079773	36.099957
670.027161	2.123134
669.974426	23.350149
669.921814	31.835218
669.869141	29.707371
669.816528	36.066555
669.763855	27.575201
669.711121	12.724659
669.658508	16.963070
669.605835	14.839938
669.553162	36.033173
669.500488	14.834441
669.447815	16.950506
669.395142	42.368420
669.342468	23.298313
669.289795	25.411633
669.237122	48.696606
669.184448	46.570732
669.131775	48.678562
669.079102	27.508871
669.026367	31.735123
668.973694	54.997353
668.921021	31.723362
668.868347	19.030489
668.815613	31.711601
668.762939	38.046867
668.710266	38.039814
668.657593	29.581038
668.604858	31.688093
668.552185	46.467251
668.499451	46.458633
668.446777	40.115925
668.394104	48.552380
668.341370	8.442326
668.288635	35.873230
668.235962	29.537180
668.183289	37.969330
668.130554	27.417206
668.077881	40.063866
668.025146	35.839966
667.972412	31.617632
667.919739	31.611765
667.867004	27.391779
667.814270	37.920040
667.761536	35.806725
667.708801	48.435402
667.656128	16.843969
667.603394	35.786789
667.550720	31.570717
667.497925	2.104324
667.445251	31.558996
667.392517	27.346052
667.339783	27.340973
667.287048	54.671795
667.234314	44.149788
667.181580	25.223764
667.128845	31.523849
667.076050	21.011995
667.023376	33.612949
666.970642	35.707123
666.917908	31.500431
666.865112	16.797110
666.812378	39.885719
666.759644	23.087442
666.706909	31.477026
666.654114	29.373098
666.601379	14.683820
666.548645	25.167583
666.495850	25.162905
666.443115	35.640823
666.390381	23.057423
666.337646	18.861656
666.284851	29.334900
666.232117	10.474802
666.179321	37.702274
666.126587	56.542896
666.073792	33.500671
666.020996	31.401037
665.968262	52.325329
665.915527	31.389359
665.862732	12.553408
665.809937	43.928753
665.757202	31.371843
665.704407	23.001738
665.651611	14.634747
665.598877	8.361156
665.546082	37.618202
665.493286	35.521690
665.440491	16.712978
665.387756	27.153536
665.334961	50.120274
665.282166	27.143427
665.229370	27.138374
665.176575	39.656395
665.123779	39.649014
665.071045	22.950417
665.018188	18.774118
664.965393	12.513748
664.912598	12.511417
664.859802	2.084848
664.807007	33.351353
664.754211	37.513283
664.701416	20.836832
664.648621	35.416016
664.595825	39.575230
664.542969	24.990227
664.490173	39.560486
664.437378	24.980915
664.384583	24.976259
664.331787	22.890638
664.278931	33.289268
664.226135	18.721724
664.173279	24.957645
664.120483	16.635328
664.067688	37.422512
664.014832	43.651459
663.962036	39.486816
663.909180	60.258114
663.856384	22.852264
663.803528	31.156366
663.750671	29.073853
663.697876	24.915798
663.645081	39.442657
663.592224	29.057589
663.539368	22.826704
663.486572	35.271053
663.433716	53.933899
663.380859	26.961918
663.328064	26.956888
663.275208	29.025078
663.222351	31.092495
663.169556	43.521370
663.116638	43.513248
663.063782	37.290108
663.010925	41.425720
662.958130	26.921692
662.905273	35.198719
662.852417	8.280505
662.799561	20.697399
662.746704	22.762888
662.693848	20.689671
662.640991	33.097290
662.588135	16.545555
662.535278	49.627396
662.482422	47.550705
662.429504	31.005537
662.376648	26.866447
662.323792	26.861427
662.270935	30.988165
662.218079	30.982376
662.165222	53.692753
662.112305	20.647200
662.059448	26.836344
662.006531	26.831329
661.953674	16.508501
661.900818	18.568594
661.847961	45.381409
661.795044	20.624058
661.742188	37.116364
661.689270	26.801252
661.636353	16.489994
661.583496	14.426048
661.530640	18.544308
661.477722	22.661026
661.424805	26.776205
661.371948	41.186459
661.319031	45.296631
661.266174	22.644079
661.213257	53.512360
661.160339	28.808956
661.107483	18.516579
661.054565	39.083241
661.001648	20.566278
660.948730	37.012375
660.895813	37.005451
660.842957	20.554735
660.790039	2.055089
660.737122	32.875267
660.684204	57.520950
660.631287	28.755093
660.578369	39.017464
660.525452	12.318997
660.472534	45.161201
660.419617	57.467133
660.366699	32.832211
660.313782	22.567919
660.260864	12.307468
660.207947	20.508606
660.154968	24.605719
660.102112	22.551018
660.049133	0.000000
659.996216	34.838516
659.943298	26.636229
659.890320	34.825466
659.837402	8.192692
659.784485	22.525681
659.731567	20.474054
659.678589	28.658304
659.625610	30.699572
659.572693	22.508801
659.519775	34.779808
659.466858	18.409388
659.413879	40.902081
659.360962	36.804974
659.307983	10.221686
659.255005	34.747219
659.202087	30.653561
659.149109	24.518251
659.096130	26.556458
659.043213	46.975689
658.990234	38.798725
658.937256	30.624828
658.884338	16.330177
658.831360	28.572451
658.778381	22.445570
658.725464	42.842594
658.672485	34.675594
658.619507	22.432940
658.566528	14.272828
658.513550	36.694672
658.460571	24.458523
658.407654	44.832207
658.354614	26.486786
658.301697	14.259439
658.248718	44.806965
658.195740	16.290384
658.142761	8.143662
658.089783	22.390867
658.036804	26.456964
657.983826	42.730148
657.930786	32.550190
657.877808	26.442062
657.824829	40.672455
657.771851	38.631577
657.718872	26.427166
657.665833	28.454678
657.612854	34.545616
657.559875	20.317133
657.506836	36.563969
657.453857	30.464249
657.400879	16.244547
657.347839	50.754665
657.294861	34.506687
657.241882	42.617897
657.188843	16.232336
657.135864	18.257946
657.082825	50.706982
657.029846	16.223185
656.976807	38.522820
656.923767	16.217085
656.870789	24.321053
656.817749	38.501091
656.764771	28.363890
656.711731	34.435387
656.658752	28.353222
656.605652	26.323038
656.552673	30.367023
656.499634	28.337223
656.446594	24.284479
656.393616	56.653122
656.340576	24.275341
656.287537	12.135386
656.234497	30.332758
656.181458	22.239836
656.128479	34.364185
656.075378	44.462929
656.022339	28.289267
655.969299	24.243378
655.916321	32.318417
655.863220	34.331856
655.810181	24.229687
655.757141	22.206366
655.704102	34.312466
655.651062	12.108001
655.598022	30.264301
655.544983	14.120681
655.491943	44.370922
655.438843	42.346085
655.385803	32.257607
655.332764	18.141485
655.279663	24.184090
655.226624	44.329144
655.173584	58.422859
655.120483	44.312439
655.067444	36.248798
655.014404	16.107542
654.961304	38.248199
654.908264	22.139521
654.855164	42.258392
654.802124	26.155024
654.749023	36.207821
654.695984	28.156330
654.642944	28.151020
654.589844	40.208160
654.536743	30.150434
654.483704	12.057899
654.430603	34.157604
654.377563	34.151161
654.324402	10.042564
654.271362	20.081341
654.218262	42.162857
654.165161	38.140152
654.112122	18.062979
654.059021	46.152237
654.005920	42.131046
653.952820	40.117233
653.899719	26.071281
653.846619	28.071465
653.793518	28.066166
653.740417	16.034782
653.687378	20.039694
653.634216	46.082596
653.581177	20.032127
653.528015	18.025511
653.474915	24.029476
653.421875	40.041565
653.368713	20.017002
653.315613	16.010576
653.262512	26.012274
653.209412	18.005096
653.156311	26.002447
653.103149	37.996399
653.050049	27.992056
652.996948	39.981098
652.943848	25.982803
652.890686	47.959187
652.837585	11.987531
652.784485	27.965620
652.731323	25.963167
652.678223	15.974314
652.625061	43.921059
652.571960	37.924652
652.518799	37.917484
652.465698	41.900875
652.412537	37.903149
652.359436	39.890507
652.306274	27.918074
652.253174	31.900337
652.200012	41.861275
652.146912	17.937153
652.093750	21.919041
652.040588	11.953578
651.987427	57.764698
651.934326	21.906603
651.881165	31.858122
651.828003	23.889071
651.774902	29.855686
651.721680	51.740063
651.668579	45.761395
651.615417	37.795738
651.562256	13.922110
651.509094	27.838949
651.455933	33.798038
651.402832	33.791641
651.349670	29.810509
651.296448	21.856901
651.243286	45.692139
651.190125	19.862385
651.136963	17.872763
651.083801	29.782295
651.030640	33.746876
650.977478	21.832077
650.924316	25.796659
650.871155	25.791771
650.817932	29.754099
650.764771	17.849077
650.711609	33.708534
650.658447	29.737190
650.605225	13.874725
650.552063	21.799007
650.498901	43.589752
650.445740	39.619537
650.392517	37.631428
650.339355	13.861582
650.286133	35.637310
650.232971	25.733177
650.179749	41.561096
650.126587	31.659594
650.073364	49.458736
650.020203	35.603539
649.966980	11.865595
649.913757	23.726688
649.860596	33.606434
649.807373	25.694162
649.754211	17.784893
649.700989	23.708691
649.647827	3.950699
649.594543	27.649645
649.541382	21.720598
649.488159	27.639153
649.434937	39.477013
649.381714	15.787807
649.328552	11.838608
649.275330	39.454536
649.222107	27.612934
649.168884	29.579670
649.115662	23.659243
649.062439	45.338272
649.009216	39.417099
648.955994	39.409615
648.902771	29.551598
648.849548	23.636789
648.796326	25.601658
648.743103	29.534763
648.689819	23.623323
648.636658	21.650599
648.583374	27.550074
648.530151	33.447304
648.476929	33.440948
648.423706	9.833704
648.370483	29.495506
648.317200	31.455894
648.263977	47.174877
648.210693	23.582954
648.157532	37.332581
648.104248	17.680492
648.051025	25.533634
647.997742	39.275047
647.944519	49.084473
647.891296	19.630056
647.838013	31.402119
647.784729	25.509369
647.731506	45.123379
647.678284	27.461180
647.625000	25.494816
647.571716	27.450733
647.518433	27.445513
647.465210	29.400312
647.411926	47.031548
647.358704	23.511301
647.305420	21.547924
647.252197	29.377941
647.198853	27.414194
647.145630	33.282330
647.092346	35.233406
647.039124	23.484467
646.985779	29.349995
646.932556	39.125877
646.879211	11.735528
646.825989	25.422136
646.772705	13.686236
646.719421	25.412457
646.666138	44.951939
646.612854	19.540598
646.559570	33.212692
646.506287	35.159679
646.453003	11.717661
646.399719	39.051430
646.346436	31.235191
646.293091	37.084724
646.239868	33.174747
646.186523	23.413006
646.133240	27.309969
646.079956	35.106125
646.026672	23.399622
645.973328	9.747985
645.920044	33.136829
645.866760	25.335098
645.813477	19.484821
645.760132	35.065994
645.706848	52.588959
645.653564	27.263151
645.600220	21.416962
645.546875	35.039253
645.493591	29.193810
645.440308	33.080006
645.386963	27.237164
645.333618	29.177109
645.280334	23.337233
645.227051	33.054775
645.173706	34.992493
645.120422	31.098505
645.067078	31.092571
645.013733	33.029552
644.960449	23.310528
644.907104	17.479559
644.853760	31.068842
644.800415	11.648592
644.747131	9.705307
644.693787	15.525526
644.640442	32.985443
644.587097	36.859047
644.533752	17.456215
644.480408	46.541016
644.427063	19.388386
644.373779	38.769367
644.320435	34.885765
644.267090	48.443199
644.213745	32.935081
644.160400	27.117826
644.107056	30.985882
644.053650	27.107466
644.000305	40.653431
643.947021	32.903629
643.893616	46.443306
643.840271	30.956287
643.786926	25.147177
643.733582	32.878483
643.680176	21.270247
643.626831	25.132759
643.573486	50.255905
643.520142	17.392950
643.466736	38.643608
643.413391	28.977165
643.360046	27.040182
643.306702	46.345734
643.253296	27.029840
643.199890	13.512335
643.146545	25.089537
643.093201	36.662308
643.039795	40.513744
642.986450	28.932854
642.933044	23.141853
642.879700	15.424951
642.826294	15.421999
642.772949	25.055952
642.719543	26.978168
642.666138	26.973005
642.612793	34.672939
642.559387	15.407246
642.506042	26.957518
642.452576	50.054379
642.399231	36.571194
642.345825	9.622156
642.292419	25.012815
642.239075	30.779108
642.185669	17.309933
642.132263	38.459148
642.078857	9.612946
642.025452	34.599976
641.972046	34.593346
641.918640	32.665234
641.865234	23.053394
641.811829	19.207481
641.758423	23.044561
641.705017	40.320255
641.651611	36.473240
641.598206	46.062630
641.544800	17.270176
641.491394	34.533730
641.437988	19.181726
641.384521	23.013660
641.331116	34.513870
641.277710	23.004835
641.224304	7.666808
641.170898	44.075695
641.117493	42.151276
641.064026	28.733994
641.010620	26.813250
640.957214	17.233782
640.903748	17.230476
640.850342	42.110863
640.796936	9.568814
640.743469	30.614330
640.690002	22.956343
640.636597	34.427906
640.583191	36.333595
640.529724	22.943129
640.476257	34.408089
640.422852	26.756708
640.369385	32.484051
640.315979	40.119656
640.262512	17.190838
640.209045	17.187536
640.155640	13.365517
640.102173	15.271943
640.048706	41.989780
639.995300	32.440414
639.941833	19.078932
639.888367	11.445161
639.834900	53.400490
639.781494	15.254352
639.727966	17.157848
639.674561	9.530307
639.621094	15.245561
639.567627	26.674604
639.514160	20.954590
639.460693	32.378143
639.407227	24.754997
639.353760	11.423187
639.300293	30.455978
639.246826	26.643858
639.193359	28.541502
639.139893	36.145618
639.086426	24.726458
639.032959	26.623373
638.979492	28.519556
638.926025	34.216885
638.872498	15.204580
638.819031	43.704762
638.765564	24.697939
638.712097	34.190567
638.658569	39.881321
638.605103	26.582432
638.551636	45.561115
638.498108	24.674189
638.444641	49.338882
638.391113	36.048397
638.337646	24.659946
638.284180	17.068985
638.230652	36.027584
638.177185	22.749884
638.123657	34.118256
638.070129	26.531313
638.016663	37.894577
637.963196	32.204189
637.909668	1.893999
637.856140	17.042711
637.802673	22.719238
637.749146	11.357431
637.695618	20.817945
637.642090	22.706112
637.588623	28.377172
637.535156	34.046047
637.481567	20.801908
637.428101	18.907181
637.374573	39.697430
637.321045	37.799789
637.267517	11.337751
637.214050	20.781872
637.160522	28.333452
637.106995	13.219729
637.053406	20.769855
636.999939	16.990242
636.946411	30.199051
636.892883	11.322460
636.839355	32.074120
636.785828	22.636189
636.732300	33.947735
636.678711	26.398699
636.625183	30.164124
636.571655	20.733833
636.518127	13.191712
636.464600	22.610003
636.411011	24.489443
636.357544	16.950958
636.304016	32.012299
636.250427	32.006119
636.196899	30.117594
636.143372	35.757740
636.089783	5.644869
636.036255	26.337637
635.982666	18.808966
635.929138	37.610668
635.875610	26.322386
635.822083	15.038459
635.768494	43.227219
635.714905	18.790813
635.661377	28.180777
635.607788	35.688759
635.554260	39.437851
635.500671	18.776300
635.447083	16.895407
635.393555	24.399759
635.339966	13.135794
635.286438	16.885614
635.232849	26.261436
635.179260	30.007269
635.125732	22.501102
635.072144	24.371483
635.018555	29.989874
634.965027	24.362062
634.911438	14.989140
634.857849	20.606083
634.804260	14.983345
634.750671	33.706005
634.697083	24.338520
634.643494	9.359159
634.589905	18.714697
634.536316	24.324402
634.482727	18.707458
634.429138	37.407681
634.375610	43.010509
634.321960	16.826944
634.268372	13.085091
634.214783	18.689369
634.161194	24.291479
634.107605	26.154991
634.054016	46.696304
634.000427	24.277378
633.946777	26.139809
633.893188	46.669193
633.839600	3.732813
633.786011	26.124630
633.732361	41.045040
633.678772	18.653225
633.625183	33.569302
633.571594	22.375200
633.517944	18.642389
633.464355	41.005314
633.410767	40.997372
633.357117	29.810493
633.303467	27.941923
633.249878	27.936510
633.196289	26.069025
633.142639	20.478836
633.089050	14.890813
633.035400	13.026937
632.981750	27.909454
632.928162	16.742426
632.874512	26.038727
632.820862	1.859548
632.767273	42.761326
632.713623	39.035378
632.659973	29.735474
632.606384	14.864855
632.552734	27.866198
632.499084	39.005112
632.445496	11.142156
632.391785	38.989983
632.338196	27.844585
632.284546	29.695129
632.230896	37.111710
632.177307	55.656765
632.123596	16.693790
632.069946	12.981540
632.016357	44.499500
631.962646	20.391645
631.909058	22.241114
631.855408	40.767464
631.801697	57.433910
631.748047	38.899288
631.694397	27.779814
631.640747	48.142326
631.587097	22.215221
631.533447	33.316360
631.479736	25.907694
631.426086	16.651712
631.372437	14.798647
631.318787	44.387318
631.265076	40.680470
631.211426	27.731297
631.157776	36.967880
631.104126	22.176418
631.050415	42.496544
630.996765	22.167801
630.943115	27.704367
630.889465	36.931976
630.835754	20.308640
630.782043	27.688217
630.728394	44.292534
630.674744	38.748436
630.621033	18.448048
630.567322	35.044476
630.513672	33.193577
630.460022	18.437290
630.406250	14.746964
630.352600	1.843012
630.298889	29.482456
630.245239	22.107542
630.191528	23.945177
630.137817	23.940519
630.084106	20.253422
630.030457	27.612928
629.976746	29.448061
629.923035	20.241602
629.869324	31.276388
629.815674	20.233725
629.761963	29.425144
629.708252	20.225849
629.654541	29.413691
629.600830	36.759956
629.547119	29.402239
629.493469	5.511847
629.439758	47.760036
629.385986	22.038801
629.332336	23.870718
629.278564	47.732140
629.224854	34.874386
629.171143	31.197319
629.117432	23.852125
629.063721	27.516323
629.009949	16.506577
628.956299	20.170774
628.902527	20.166843
628.848816	47.657799
628.795105	23.824255
628.741394	21.987335
628.687622	9.159604
628.633911	31.136583
628.580200	20.143272
628.526428	14.646797
628.472717	31.118376
628.419006	60.394482
628.365295	9.148895
628.311523	12.805955
628.257812	16.461588
628.204041	31.088047
628.150269	49.365505
628.096558	21.935946
628.042786	21.931665
627.989075	32.891079
627.935303	32.884663
627.881592	32.878246
627.827820	5.478639
627.774048	20.084421
627.720337	14.604002
627.666565	34.677734
627.612793	18.247877
627.559082	5.473295
627.505310	25.537056
627.451538	29.179508
627.397766	32.820538
627.344055	25.522100
627.290283	29.162420
627.236511	16.400658
627.182739	45.548485
627.128967	29.145338
627.075195	34.603329
627.021423	29.133953
626.967651	29.128262
626.913940	50.964500
626.860107	23.657465
626.806335	25.472292
626.752563	32.743690
626.698792	21.824862
626.645020	23.638979
626.591248	38.178581
626.537476	16.359051
626.483704	27.259754
626.429932	27.254425
626.376099	7.266426
626.322327	27.243771
626.268555	23.606651
626.214783	30.864199
626.161011	34.488537
626.107178	38.111454
626.053406	12.701333
625.999573	21.769455
625.945862	23.578962
625.892029	25.387760
625.838196	21.756681
625.784424	32.628635
625.730652	41.683987
625.676819	25.367897
625.623047	14.493104
625.569214	16.301552
625.515381	28.974863
625.461609	10.863447
625.407837	16.291981
625.354004	28.957851
625.300232	21.714136
625.246399	30.755671
625.192566	14.470423
625.138794	21.701384
625.084961	43.394264
625.031128	32.539326
624.977295	25.303408
624.923462	48.789867
624.869690	19.873461
624.815857	10.837946
624.762024	32.507465
624.708191	45.140411
624.654419	18.052628
624.600525	45.122723
624.546753	18.045551
624.492920	21.650417
624.439087	21.646173
624.385254	14.427954
624.331421	19.834547
624.277588	27.041809
624.223755	34.246243
624.169922	25.229124
624.116089	19.818996
624.062256	19.815109
624.008423	63.035713
623.954590	23.408672
623.900696	34.205963
623.846863	21.599529
623.793030	-1.799608
623.739197	16.193291
623.685303	26.983522
623.631531	21.582582
623.577637	17.981956
623.523804	32.361168
623.469971	28.759838
623.416077	17.971371
623.362244	25.154980
623.308411	28.742905
623.254517	26.941183
623.200623	43.097431
623.146790	21.544485
623.092957	32.310379
623.039062	19.741356
622.985229	34.092007
622.931396	23.321529
622.877502	34.078617
622.823608	23.312368
622.769775	28.686508
622.715881	35.851089
622.661987	23.298632
622.608154	39.420704
622.554260	25.080975
622.500366	42.987507
622.446533	30.443499
622.392639	30.437515
622.338745	14.320721
622.284851	42.953716
622.231018	39.366501
622.177124	12.523242
622.123230	25.041559
622.069336	25.036636
622.015442	7.151918
621.961548	26.814417
621.907715	30.383696
621.853821	21.443096
621.799927	25.012026
621.746033	30.365770
621.692078	37.503277
621.638184	14.284152
621.584351	17.851677
621.530457	35.696327
621.476562	16.060186
621.422668	17.841139
621.368713	14.270103
621.314819	32.101410
621.260925	23.179789
621.207031	33.871483
621.153137	28.517738
621.099243	16.038069
621.045288	35.633137
620.991394	35.626122
620.937500	19.590508
620.883606	24.928463
620.829651	24.923552
620.775757	12.459322
620.721802	23.134182
620.667908	32.025635
620.614014	28.461622
620.560059	21.342010
620.506165	17.781504
620.452209	14.222400
620.398254	15.997046
620.344360	33.764885
620.290405	23.097736
620.236511	35.527977
620.182556	33.744923
620.128662	31.962572
620.074707	24.854877
620.020813	7.099993
619.966858	23.070427
619.912903	23.065878
619.859009	28.383175
619.805054	23.056780
619.751099	23.052233
619.697144	24.820583
619.643188	21.270590
619.589294	35.443989
619.535339	17.718496
619.481384	23.029501
619.427429	24.796106
619.373535	42.499222
619.319580	31.868126
619.265625	19.471123
619.211609	24.776537
619.157654	35.388065
619.103760	21.228647
619.049805	15.918342
618.995850	21.220264
618.941833	12.376043
618.887939	47.726742
618.833923	44.182701
618.779968	10.601753
618.726013	28.265759
618.672058	15.896348
618.618103	21.190945
618.564148	21.186758
618.510193	35.304287
618.456177	15.883789
618.402222	33.525818
618.348267	19.405848
618.294250	22.929651
618.240295	21.161648
618.186340	22.920588
618.132385	37.018246
618.078369	31.723652
618.024414	15.858689
617.970459	29.949379
617.916443	29.943457
617.862427	24.654442
617.808472	0.000000
617.754517	26.405025
617.700500	24.639816
617.646545	14.077109
617.592529	21.111486
617.538513	21.107309
617.484558	15.827351
617.430542	38.681423
617.376526	33.400074
617.322571	19.333057
617.268555	35.144054
617.214539	14.054840
617.160583	29.860622
617.106567	26.342392
617.052612	21.069742
616.998535	29.842892
616.944580	24.571632
616.890564	22.811998
616.836548	15.789794
616.782532	28.065186
616.728516	14.029814
616.674500	36.820965
616.620544	26.295481
616.566528	15.774162
616.512512	31.542074
616.458496	17.519903
616.404480	28.026289
616.350464	22.766848
616.296448	40.271824
616.242371	12.254213
616.188416	17.502548
616.134338	34.998161
616.080322	-1.749561
616.026306	34.984283
615.972290	13.990939
615.918274	26.227810
615.864258	20.978086
615.810181	33.208717
615.756165	10.484883
615.702148	26.207010
615.648132	26.201811
615.594055	12.225086
615.540039	34.921890
615.486023	31.423464
615.431946	5.236205
615.377930	24.430775
615.323853	13.957672
615.269836	36.631618
615.215820	26.160248
615.161743	22.667715
615.107727	40.096458
615.053650	22.658716
614.999634	22.654219
614.945557	22.649719
614.891541	8.709701
614.837463	27.865509
614.783386	12.188739
614.729370	17.409025
614.675293	12.183898
614.621277	17.402111
614.567200	19.138519
614.513123	29.571836
614.459045	20.870090
614.405029	31.298914
614.350952	38.246628
614.296875	39.977165
614.242798	15.640129
614.188721	20.849361
614.134705	22.582319
614.080627	45.155659
614.026550	34.728218
613.972412	1.736066
613.918396	8.678602
613.864319	38.178257
613.810242	31.230543
613.756165	17.346851
613.702087	31.218122
613.648010	29.477919
613.593933	32.939354
613.539856	25.999580
613.485779	43.324013
613.431641	24.256620
613.377563	36.377693
613.323486	51.957790
613.269409	27.705307
613.215332	29.431030
613.161255	19.039818
613.107117	25.958220
613.053040	25.953053
612.998962	31.137463
612.944885	34.590290
612.890747	8.645851
612.836670	34.576519
612.782593	12.099372
612.728516	38.019024
612.674377	29.372484
612.620300	19.001940
612.566162	20.725260
612.512085	22.447891
612.457947	34.528339
612.403870	10.356438
612.349731	34.514580
612.295593	22.430006
612.241516	48.301155
612.187378	17.246975
612.133301	36.211426
612.079163	24.136139
612.025085	18.960329
611.970947	32.743130
611.916870	32.736603
611.862671	17.226355
611.808594	29.278963
611.754456	22.385330
611.700317	27.545681
611.646240	29.261450
611.592102	15.488266
611.537964	18.926327
611.483826	43.005795
611.429749	34.397774
611.375610	27.512728
611.321472	48.137665
611.267334	29.220608
611.213196	18.903679
611.159058	6.872693
611.104919	27.485285
611.050781	27.479799
610.996643	15.454301
610.942505	17.168016
610.888367	32.612720
610.834167	12.012814
610.780029	32.599697
610.725952	12.008016
610.671753	27.441412
610.617615	34.294914
610.563477	20.572838
610.509338	20.568727
610.455200	17.137182
610.401062	15.420382
610.346924	10.278201
610.292725	35.966515
610.238586	17.123489
610.184387	32.528126
610.130249	32.521626
610.076050	30.803802
610.021912	42.774506
609.967773	32.502125
609.913574	32.495628
609.859436	18.809496
609.805237	25.644184
609.751099	34.185410
609.696899	32.469643
609.642761	20.503042
609.588623	25.623676
609.534424	29.034357
609.480286	15.368054
609.426086	5.121660
609.371887	32.430691
609.317749	25.598053
609.263550	22.180540
609.209351	27.293663
609.155212	18.760637
609.101013	0.000000
609.046814	20.457958
608.992676	37.498749
608.938416	23.858063
608.884277	20.445673
608.830078	35.772762
608.775879	22.140610
608.721680	10.216697
608.667542	23.834185
608.613342	15.318907
608.559082	18.719357
608.504944	28.924120
608.450745	27.217247
608.396545	10.204423
608.342346	27.206343
608.288086	18.700613
608.233948	23.796009
608.179749	11.895620
608.125549	35.679707
608.071289	22.083012
608.017151	23.776937
607.962952	15.282109
607.908752	30.558090
607.854553	27.157301
607.800354	27.151855
607.746094	25.449760
607.691895	10.177862
607.637695	15.263731
607.583435	28.825710
607.529236	23.734058
607.475037	30.509096
607.420837	11.862267
607.366577	15.248427
607.312317	37.266453
607.258179	38.952564
607.203918	16.932499
607.149719	16.929100
607.095398	30.466265
607.041199	30.460148
606.987061	16.918907
606.932800	32.139469
606.878540	21.985748
606.824280	30.435694
606.770081	38.882244
606.715881	33.803856
606.661621	16.898533
606.607422	16.895140
606.553162	20.270094
606.498901	13.510682
606.444641	35.458416
606.390442	18.569723
606.336121	25.317263
606.281921	32.062088
606.227661	33.742783
606.173462	25.302002
606.119202	15.178149
606.064880	25.291830
606.010681	18.543613
605.956482	20.225330
605.902161	30.331896
605.847961	6.739066
605.793701	-5.053283
605.739441	3.368178
605.685120	18.521254
605.630920	25.251175
605.576660	8.415365
605.522400	15.144609
605.468140	30.283127
605.413818	10.092344
605.359558	21.862347
605.305359	23.539328
605.251099	33.620842
605.196777	16.807039
605.142517	10.082193
605.088318	36.960602
605.033997	18.476582
604.979675	40.304424
604.925415	18.469143
604.871216	23.501448
604.816895	21.818378
604.762573	26.847980
604.708313	40.263863
604.654053	11.741261
604.599792	28.508747
604.545532	16.766474
604.491211	25.144644
604.436951	30.167494
604.382690	18.431976
604.328369	31.830633
604.274109	26.799343
604.219788	38.516289
604.165527	21.765690
604.111206	15.065517
604.056885	13.388871
604.002625	16.732716
603.948303	26.766947
603.893982	21.743759
603.839722	18.394855
603.785400	43.469982
603.731140	20.059023
603.676819	23.397472
603.622559	23.392754
603.568237	31.740904
603.513916	18.372606
603.459595	25.048498
603.405273	38.399948
603.351013	36.722973
603.296692	16.688892
603.242432	28.365391
603.188049	20.018589
603.133728	21.682426
603.079468	15.007881
603.025146	18.339262
602.970825	20.002428
602.916504	29.997585
602.862183	23.326744
602.807861	19.990314
602.753540	36.641510
602.699219	8.325933
602.644897	14.983654
602.590576	11.651599
602.536255	19.970135
602.481934	13.310733
602.427551	36.597122
602.373291	21.621201
602.318909	8.314166
602.264587	28.262453
602.210266	4.986484
602.155945	16.618252
602.101624	13.291915
602.047241	29.900763
601.992920	19.929811
601.938599	18.265301
601.884277	23.242044
601.829895	26.556965
601.775574	19.913696
601.721191	21.568808
601.666870	8.294018
601.612549	43.120167
601.558167	23.213854
601.503845	19.893564
601.449463	13.259692
601.395081	13.257010
601.340759	28.165445
601.286377	33.129112
601.232117	18.217323
601.177734	36.427273
601.123352	13.243600
601.068970	0.000000
601.014648	8.273899
600.960266	19.853336
600.905884	23.157536
600.851562	34.729271
600.797241	18.187838
600.742798	19.837259
600.688477	8.263851
600.634094	9.914612
600.579773	23.129408
600.525391	24.776489
600.471008	16.514313
600.416626	8.255484
600.362305	26.412193
600.307861	14.853848
600.253479	36.302048
600.199158	9.898552
600.144775	9.896545
600.090393	13.192719
600.035950	31.326355
599.981628	28.023161
599.927246	3.296174
599.872864	13.182022
599.818481	23.063860
599.764099	16.470844
599.709717	29.641508
599.655273	9.878498
599.600891	24.691236
599.546509	31.269220
599.492065	23.035803
599.437683	23.031130
599.383301	18.092215
599.328918	46.043564
599.274597	21.373032
599.220154	3.287491
599.165710	23.007767
599.111328	16.430784
599.056946	18.070192
599.002563	27.920992
598.948181	32.841557
598.893738	8.208721
598.839294	14.772698
598.784973	13.128620
598.730530	21.329674
598.676086	32.808220
598.621704	22.961088
598.567322	24.596167
598.512878	21.312347
598.458435	16.390781
598.404053	27.858667
598.349609	36.045067
598.295227	22.933107
598.240784	40.943653
598.186401	31.110851
598.131958	18.007885
598.077515	21.277719
598.023132	19.636978
597.968689	24.541231
597.914246	17.993242
597.859863	17.989584
597.805420	27.796431
597.750977	27.790775
597.696533	17.978609
597.642090	9.804519
597.587708	22.872557
597.533264	24.501326
597.478821	13.064714
597.424377	17.960327
597.369934	11.426972
597.315552	17.953016
597.261047	21.212883
597.206665	13.051425
597.152161	4.893288
597.097778	17.938402
597.043335	3.260864
596.988892	21.191299
596.934387	14.667912
596.879944	24.441540
596.825500	27.694771
596.771118	11.401406
596.716614	17.912846
596.662170	17.909197
596.607727	19.533325
596.553223	16.274454
596.498840	34.169392
596.444336	30.908863
596.389893	32.529015
596.335449	11.382834
596.281006	22.761030
596.226562	17.880020
596.172058	35.752750
596.117615	34.120667
596.063171	27.615862
596.008667	4.872394
595.954224	34.099800
595.899719	11.364282
595.845276	32.462753
595.790771	14.605260
595.736328	21.092182
595.681885	22.710024
595.627380	16.218136
595.572876	-1.621483
595.518433	22.696127
595.463928	21.070673
595.409485	21.066374
595.354980	22.682234
595.300537	6.479315
595.245972	19.433979
595.191528	3.238335
595.137085	21.044880
595.082581	32.370129
595.028076	27.508991
594.973572	24.267683
594.919128	29.115273
594.864563	16.171846
594.810120	16.168545
594.755615	14.548717
594.701172	30.707684
594.646667	3.231727
594.592102	33.926205
594.537659	22.612846
594.483154	25.837973
594.428650	24.218149
594.374146	35.512691
594.319641	29.049900
594.265137	19.362640
594.210632	14.519011
594.156128	24.193405
594.101624	25.801022
594.047119	38.693619
593.992615	17.730949
593.938110	24.173622
593.883606	22.557432
593.829102	27.385565
593.774597	17.716446
593.720032	30.594873
593.665527	20.929052
593.611023	33.801552
593.556519	33.794632
593.502014	24.134085
593.447449	30.563583
593.392944	28.949047
593.338440	19.295414
593.283936	27.329575
593.229370	22.502100
593.174866	16.069637
593.120361	20.886251
593.065796	6.425223
593.011292	44.967350
592.956726	16.056479
592.902222	20.869146
592.847717	14.444911
592.793152	-1.604661
592.738586	16.043325
592.684082	14.436035
592.629578	36.884529
592.575012	12.826773
592.520447	35.266396
592.465942	33.656479
592.411377	30.444859
592.356812	28.836584
592.302246	25.627264
592.247742	24.020636
592.193176	24.015709
592.138672	22.410067
592.084106	25.606253
592.029541	17.600687
591.974976	30.394953
591.920471	28.789312
591.865906	41.576031
591.811340	20.783751
591.756775	19.181065
591.702209	15.980941
591.647644	22.368727
591.593140	28.753889
591.538574	25.553766
591.483948	28.742086
591.429443	23.946823
591.374878	17.557398
591.320312	27.128590
591.265747	15.954718
591.211182	14.356297
591.156616	14.353350
591.102051	27.106316
591.047485	22.318262
590.992859	31.876684
590.938293	23.902601
590.883728	23.897692
590.829224	30.264191
590.774597	15.925248
590.720093	35.028347
590.665466	25.469927
590.610901	23.873150
590.556274	20.685810
590.501709	25.454226
590.447144	23.858431
590.392578	20.673056
590.337952	20.668806
590.283386	27.022882
590.228821	15.892544
590.174194	27.011768
590.119629	38.126419
590.065002	20.647562
590.010437	31.758947
589.955811	30.164793
589.901245	23.809412
589.846680	17.456642
589.792053	41.252666
589.737488	6.345258
589.682861	20.617846
589.628296	30.127571
589.573669	30.121370
589.519043	12.680072
589.464478	15.846827
589.409851	28.518415
589.355225	26.928514
589.300598	11.085929
589.246033	15.833779
589.191467	25.328831
589.136780	23.740887
589.082214	22.153597
589.027588	15.820739
588.973022	12.653984
588.918396	39.535553
588.863708	31.621925
588.809143	22.130787
588.754517	18.965336
588.699890	25.281904
588.645264	30.016073
588.590637	18.953613
588.536072	22.107990
588.481384	14.209349
588.426819	15.784910
588.372192	29.985146
588.317566	25.245443
588.262939	-1.577515
588.208252	18.926273
588.153687	26.806690
588.098999	28.377701
588.044434	14.185923
587.989807	22.062439
587.935120	47.266899
587.880493	23.628574
587.825867	15.749132
587.771240	25.193411
587.716614	11.019842
587.661926	7.869691
587.607300	11.015294
587.552673	6.293154
587.498047	26.740383
587.443359	9.435834
587.388733	15.723143
587.334106	1.571990
587.279419	31.433298
587.224792	31.426805
587.170166	20.423204
587.115479	25.131060
587.060852	7.851834
587.006165	12.560338
586.951538	23.545769
586.896912	25.110296
586.842224	7.845346
586.787537	14.118704
586.732910	36.073677
586.678284	23.521448
586.623535	25.084358
586.568909	26.646620
586.514282	12.536993
586.459595	6.267200
586.404907	18.797714
586.350281	25.058435
586.295593	18.789940
586.240906	15.655044
586.186279	25.042889
586.131592	34.426849
586.076904	23.467995
586.022217	9.385256
585.967590	14.074971
585.912903	20.326307
585.858215	26.575054
585.803528	25.006638
585.748901	9.375548
585.694214	15.622680
585.639465	21.867224
585.584839	20.301075
585.530090	20.296871
585.475464	35.902412
585.420776	26.531071
585.366089	24.965248
585.311401	17.160053
585.256714	18.716181
585.202026	20.271662
585.147339	7.795178
585.092651	21.821976
585.037964	6.233558
584.983276	15.580667
584.928528	3.115488
584.873901	40.492943
584.819153	20.242275
584.764465	23.351629
584.709778	37.354862
584.655090	31.122599
584.600342	15.558073
584.545715	10.888392
584.490967	12.441297
584.436279	15.548396
584.381531	18.654205
584.326782	6.216779
584.272095	18.646467
584.217407	9.321300
584.162720	24.851641
584.108032	24.846485
584.053223	20.183580
583.998535	10.865826
583.943848	3.103877
583.889160	17.067781
583.834412	31.025890
583.779663	24.815559
583.724976	10.854553
583.670288	21.704599
583.615540	18.600079
583.560852	23.245272
583.506104	34.085983
583.451355	23.235617
583.396667	18.584633
583.341919	32.516350
583.287231	13.932684
583.232483	24.764069
583.177734	24.758924
583.122986	18.565334
583.068237	15.467897
583.013489	20.104088
582.958801	21.646055
582.904053	18.549906
582.849304	27.819073
582.794556	10.816279
582.739868	13.903753
582.685120	18.534483
582.630371	6.176877
582.575623	18.526775
582.520874	10.805037
582.466125	29.321859
582.411377	38.573368
582.356567	15.426138
582.301880	10.796050
582.247131	6.167888
582.192383	27.749720
582.137634	12.330642
582.082886	16.951105
582.028137	30.813776
581.973389	24.645889
581.918640	16.940521
581.863892	4.619180
581.809143	23.091093
581.754333	23.086285
581.699585	27.697773
581.644836	12.307558
581.590027	16.919367
581.535278	19.991451
581.480530	24.599737
581.425781	15.371634
581.370972	18.442118
581.316223	13.828706
581.261414	27.651649
581.206665	12.287061
581.151917	23.033438
581.097168	13.817182
581.042358	13.814301
580.987549	35.295856
580.932800	19.945673
580.877991	19.941515
580.823242	23.004642
580.768494	18.399876
580.713684	30.660065
580.658936	39.849770
580.604126	19.920729
580.549377	26.044750
580.494568	13.785522
580.439758	27.565290
580.385010	22.966282
580.330200	22.961491
580.275452	35.200272
580.220642	19.891653
580.165833	12.238462
580.111084	21.412838
580.056274	16.820862
580.001465	12.230800
579.946655	19.870899
579.891907	41.261715
579.837036	19.862602
579.782288	27.496321
579.727478	10.690781
579.672668	22.904030
579.617859	6.106466
579.563110	19.841867
579.508240	27.467615
579.453491	21.359238
579.398682	16.778751
579.343872	10.675156
579.289062	16.771738
579.234192	22.865772
579.179443	13.716596
579.124573	13.713729
579.069763	36.562298
579.014954	27.415989
578.960144	13.705129
578.905396	18.269684
578.850525	0.000000
578.795776	4.565511
578.740906	13.693667
578.686096	18.254404
578.631226	21.292349
578.576416	24.329021
578.521606	9.121474
578.466797	33.438408
578.411987	21.274534
578.357117	19.750790
578.302307	24.303577
578.247498	37.966389
578.192627	28.848415
578.137817	27.324356
578.083008	12.141616
578.028137	40.969372
577.973328	19.721865
577.918457	22.751232
577.863647	13.647880
577.808838	30.322269
577.753967	21.221142
577.699097	19.701218
577.644287	13.636447
577.589417	18.178120
577.534607	24.232414
577.479797	10.599460
577.424927	16.652803
577.370056	25.730757
577.315247	24.212107
577.260376	22.694092
577.205505	15.126223
577.150696	25.709187
577.095825	18.143856
577.041016	18.140051
576.986145	33.249786
576.931274	25.687628
576.876404	27.192959
576.821533	24.166449
576.766663	21.141207
576.711853	30.195387
576.656982	21.132336
576.602112	31.691853
576.547241	25.649925
576.492371	22.627537
576.437500	0.000000
576.382629	22.618040
576.327820	16.583080
576.272949	22.608543
576.218079	15.069198
576.163208	22.599051
576.108276	24.100592
576.053467	21.083590
575.998596	13.550889
575.943665	16.558720
575.888794	15.050219
575.833984	9.028234
575.779053	40.618519
575.724182	33.089615
575.669312	10.526301
575.614441	25.558502
575.559570	13.528129
575.504700	19.536522
575.449768	22.537403
575.394897	21.030487
575.339966	31.539099
575.285095	37.538651
575.230225	12.009843
575.175354	30.018293
575.120422	27.010782
575.065552	36.006802
575.010681	5.999871
574.955750	20.995131
574.900879	29.986734
574.846008	31.479446
574.791077	29.974117
574.736206	17.980686
574.681274	7.490376
574.626404	10.484319
574.571533	8.984668
574.516602	19.462683
574.461670	25.445841
574.406738	11.971992
574.351868	22.442759
574.296997	29.917377
574.242126	7.477769
574.187195	23.923822
574.132263	19.434011
574.077332	11.956873
574.022461	26.897295
573.967529	11.951835
573.912598	10.455652
573.857666	13.440149
573.802795	17.916422
573.747803	17.912645
573.692932	20.893682
573.638062	25.365553
573.583069	25.360205
573.528137	22.371935
573.473206	31.314104
573.418335	7.454167
573.363403	8.943114
573.308472	32.784504
573.253601	5.959561
573.198669	8.937457
573.143738	31.274500
573.088806	10.422634
573.033813	26.795404
572.978943	14.883195
572.924011	17.856066
572.869080	14.876914
572.814148	37.184437
572.759155	20.818890
572.704224	19.327745
572.649292	28.242279
572.594360	19.319586
572.539429	10.400657
572.484497	17.825933
572.429565	11.881446
572.374573	31.182207
572.319641	23.752855
572.264771	19.295118
572.209717	35.614231
572.154785	22.254192
572.099915	32.632587
572.044922	2.965972
571.989990	14.826725
571.934998	25.200106
571.880066	11.856367
571.825073	34.079849
571.770142	8.888516
571.715210	37.027657
571.660217	0.000000
571.605286	26.648640
571.550354	26.643005
571.495361	31.076933
571.440430	11.836328
571.385437	2.958456
571.330505	11.831321
571.275513	11.828817
571.220520	17.739473
571.165527	22.169649
571.110657	14.776639
571.055664	16.250862
571.000732	20.678539
570.945679	7.383629
570.890747	22.146200
570.835754	29.522015
570.780762	13.282094
570.725830	11.803806
570.670837	17.701960
570.615906	20.647913
570.560913	20.643541
570.505920	19.164942
570.450928	19.160883
570.395935	11.788815
570.341003	11.786317
570.285950	23.567640
570.231018	23.562647
570.176025	35.336479
570.121033	29.440826
570.066040	14.717293
570.011047	10.299921
569.956055	32.364319
569.901062	13.237143
569.846130	14.704818
569.791077	23.522718
569.736084	11.758865
569.681091	19.104105
569.626099	23.507757
569.571106	4.406770
569.516113	27.903620
569.461060	23.492802
569.406128	29.359772
569.351074	14.676771
569.296143	11.738925
569.241150	17.604650
569.186096	0.000000
569.131104	29.328632
569.076050	17.593443
569.021118	23.452946
568.966064	14.654979
568.911072	13.186681
568.856018	14.648756
568.801025	13.181081
568.746033	16.106789
568.690979	13.175483
568.635986	17.563580
568.580994	17.559847
568.526001	38.038254
568.470947	29.253979
568.415894	7.311941
568.360901	29.241547
568.305847	11.694133
568.250854	27.767664
568.195801	7.305727
568.140808	7.304173
568.085815	23.368387
568.030762	21.903204
567.975708	16.058935
567.920715	26.272669
567.865662	8.755694
567.810608	24.802523
567.755615	16.045279
567.700562	14.583513
567.645569	21.870617
567.590515	21.865963
567.535522	29.148415
567.480469	21.856659
567.425415	29.136011
567.370361	13.108415
567.315369	13.105624
567.260315	21.838058
567.205261	8.733363
567.150208	20.373510
567.095154	18.914232
567.040100	11.637049
566.985107	14.543213
566.929993	27.626221
566.875000	5.814807
566.819946	21.800884
566.764893	27.608570
566.709839	29.055462
566.654785	26.144342
566.599670	46.468929
566.544678	30.488735
566.489624	26.127632
566.434509	24.670839
566.379517	23.214663
566.324463	18.857893
566.269409	15.953277
566.214355	13.049898
566.159241	7.248397
566.104248	21.740555
566.049133	13.041552
565.994080	21.731283
565.939026	11.587545
565.883911	21.722013
565.828857	20.269554
565.773804	7.237582
565.718750	36.180187
565.663635	20.256582
565.608582	30.378389
565.553528	27.479343
565.498413	11.567780
565.443420	10.119647
565.388306	14.453552
565.333191	23.120747
565.278137	18.781595
565.223022	28.888592
565.167969	34.658905
565.112854	17.325752
565.057800	21.652565
565.002747	12.988764
564.947632	0.000000
564.892578	21.638691
564.837524	15.864983
564.782410	1.441963
564.727295	27.391441
564.672241	25.944241
564.617126	14.410386
564.562012	11.525845
564.506958	21.606339
564.451843	15.841261
564.396729	18.717487
564.341675	20.152985
564.286560	30.223011
564.231445	14.388832
564.176392	27.332933
564.121277	23.012283
564.066162	17.255522
564.011047	28.753048
563.955994	10.061414
563.900879	11.496298
563.845703	18.677486
563.790649	40.219826
563.735535	11.488918
563.680420	25.844534
563.625305	14.355000
563.570251	21.527891
563.515076	30.132595
563.460022	4.303735
563.404907	11.474168
563.349792	24.377386
563.294617	25.805820
563.239563	5.733398
563.184387	21.495640
563.129333	20.058298
563.074219	17.189144
563.019043	5.728487
562.963928	24.340851
562.908813	35.787697
562.853699	22.899218
562.798584	27.186993
562.743408	27.181166
562.688293	27.175337
562.633240	20.019640
562.578064	27.163685
562.522949	17.152332
562.467834	2.858109
562.412659	18.573725
562.357544	9.999091
562.302368	11.425081
562.247253	14.278288
562.192139	15.702747
562.137024	22.835459
562.081909	19.976738
562.026733	19.972452
561.971558	14.262975
561.916443	15.685905
561.861328	34.216446
561.806152	9.977654
561.751038	5.700293
561.695862	22.796274
561.640747	27.064762
561.585571	22.786484
561.530457	32.748535
561.475281	29.894415
561.420105	38.427422
561.364990	22.766912
561.309814	2.845253
561.254700	24.179451
561.199524	24.174255
561.144348	17.060513
561.089233	5.685616
561.034058	24.158672
560.978882	12.787136
560.923767	11.363899
560.868591	19.882549
560.813416	17.038521
560.758240	15.615285
560.703125	22.708258
560.647949	14.189609
560.592773	18.442522
560.537598	22.693607
560.482483	21.270679
560.427307	25.519323
560.372131	14.174352
560.316895	21.256952
560.261780	18.418728
560.206604	15.581723
560.151428	18.410801
560.096252	24.070478
560.041077	26.896509
559.985901	14.153009
559.930725	15.564959
