#Wave		#Intensity
750.175598	4352.033691
750.125549	4357.630859
750.075500	4253.352051
750.025452	4330.964355
749.975342	4383.374023
749.925293	4178.458008
749.875244	4250.450195
749.825134	4123.910645
749.775085	4193.091797
749.724976	4125.298340
749.674927	4188.866699
749.624817	4241.236816
749.574707	4321.524414
749.524658	4206.273438
749.474548	4236.273438
749.424438	4283.015137
749.374390	4226.452637
749.324280	4351.330566
749.274170	4255.706543
749.224060	4241.029297
749.174011	4204.039551
749.123901	4259.105957
749.073730	4160.773438
749.023682	4232.557129
748.973572	4390.737305
748.923401	4217.175293
748.873352	4216.455566
748.823181	4162.794922
748.773071	4100.794922
748.723022	4478.907715
748.672852	4269.273926
748.622803	4307.526855
748.572632	4217.704102
748.522522	4300.488281
748.472351	4316.452148
748.422241	4315.714355
748.372131	4273.246582
748.322021	4258.608398
748.271851	4307.940918
748.221741	4212.663086
748.171570	4186.921875
748.121460	4394.682617
748.071289	4171.594727
748.021179	4173.660645
747.971008	4364.647461
747.920837	4263.901367
747.870728	4274.281738
747.820557	4165.254395
747.770386	4314.466309
747.720276	4080.554199
747.670105	4293.563477
747.619934	4342.778320
747.569763	4280.997559
747.519653	4208.142090
747.469482	4212.969727
747.419312	4406.362305
747.369141	4347.384766
747.318970	4293.971680
747.268799	4296.008789
747.218628	4212.140137
747.168457	4336.099609
747.118286	4343.668945
747.068115	4257.064453
747.017944	4212.028320
746.967712	4333.134277
746.917542	4243.807129
746.867371	4434.061523
746.817139	4281.098145
746.767029	4208.427246
746.716797	4315.597168
746.666626	4353.581543
746.616394	4137.130859
746.566223	4274.672363
746.516052	4298.821289
746.465820	4383.770996
746.415649	4396.838867
746.365417	4255.168457
746.315186	4331.793945
746.265015	4344.863281
746.214783	4186.703613
746.164551	4451.062988
746.114319	4265.332031
746.064148	4217.677246
746.013916	4335.625977
745.963745	4141.731934
745.913513	4356.212402
745.863281	4206.514648
745.813049	4216.826172
745.762817	4367.762207
745.712585	4284.305664
745.662354	4289.084961
745.612122	4362.762695
745.561951	4224.238770
745.511658	4284.126953
745.461487	4294.411621
745.411194	4241.347656
745.360962	4375.549805
745.310730	4245.400879
745.260437	4250.179199
745.210205	4400.824219
745.159973	4212.950195
745.109741	4333.285156
745.059509	4371.054199
745.009216	4254.791016
744.958923	4240.312500
744.908691	4280.826660
744.858398	4296.586914
744.808228	4243.629883
744.757935	4385.798340
744.707642	4393.289062
744.657410	4312.871582
744.607117	4375.303711
744.556885	4292.170410
744.506592	4382.041016
744.456299	4235.795898
744.406006	4311.920898
744.355774	4313.926270
744.305481	4307.698730
744.255249	4372.799316
744.204895	4251.365723
744.154602	4453.570312
744.104309	4238.940430
744.054077	4216.282227
744.003784	4327.937500
743.953430	4294.309570
743.903198	4394.952637
743.852905	4309.273926
743.802551	4371.532715
743.752258	4324.227051
743.701965	4328.961426
743.651733	4393.922363
743.601379	4357.585449
743.551086	4266.526367
743.500793	4183.707520
743.450500	4297.891602
743.400146	4395.625000
743.349854	4342.909180
743.299561	4314.820312
743.249207	4379.693359
743.198853	4354.340820
743.148560	4400.053711
743.098267	4382.903809
743.047913	4319.314941
742.997559	4367.741211
742.947266	4383.377930
742.896912	4409.931641
742.846619	4357.302246
742.796265	4383.850586
742.745972	4459.515625
742.695557	4461.479004
742.645264	4359.767090
742.594910	4421.757812
742.544556	4516.455078
742.494202	4502.044922
742.443909	4411.301270
742.393494	4424.172852
742.343201	4524.254883
742.292847	4335.454102
742.242432	4361.954590
742.192078	4467.443359
742.141785	4395.862793
742.091431	4356.983887
742.041016	4271.833496
741.990723	4488.874023
741.940308	4292.139160
741.889954	4451.955566
741.839600	4429.424316
741.789185	4401.459961
741.738831	4414.302734
741.688477	4402.666992
741.638062	4352.969727
741.587769	4384.843262
741.537292	4441.166992
741.486938	4345.291016
741.436584	4431.489258
741.386169	4403.561523
741.335754	4503.300781
741.285400	4345.019531
741.234985	4466.455078
741.184631	4465.687500
741.134277	4405.206543
741.083862	4491.289551
741.033447	4395.551758
740.983093	4568.417480
740.932617	4337.080566
740.882202	4398.708496
740.831848	4406.085938
740.781433	4595.096191
740.731018	4418.123047
740.680603	4487.824219
740.630188	4378.669434
740.579834	4543.171875
740.529358	4358.202637
740.478943	4471.196289
740.428528	4402.734375
740.378113	4431.756348
740.327698	4566.333008
740.277283	4508.714844
740.226868	4670.289551
740.176392	4517.984863
740.125977	4446.879395
740.075562	4486.680664
740.025146	4445.349121
739.974670	4444.583984
739.924255	4584.377441
739.873779	4548.455078
739.823364	4377.438477
739.772949	4490.154297
739.722473	4505.588379
739.672058	4534.520996
739.621582	4544.541016
739.571167	4535.659180
739.520691	4451.199219
739.470276	4423.443848
739.419800	4568.395996
739.369324	4648.547363
739.318848	4526.360840
739.268433	4452.761719
739.217896	4500.532715
739.167480	4545.591309
739.117004	4625.676758
739.066589	4422.743652
739.016113	4572.884277
738.965576	4485.881348
738.915161	4455.477051
738.864685	4532.814941
738.814209	4381.235352
738.763733	4383.172852
738.713257	4455.099121
738.662720	4553.914551
738.612244	4601.567383
738.561768	4442.034668
738.511292	4503.140137
738.460754	4631.463867
738.410278	4453.183594
738.359802	4514.255371
738.309326	4521.541992
738.258850	4493.885254
738.208313	4431.303223
738.157837	4747.582031
738.107361	4499.620605
738.056824	4643.881836
738.006287	4460.473145
737.955811	4596.636719
737.905273	4491.148926
737.854736	4482.322266
737.804260	4564.739746
737.753784	4432.480957
737.703247	4530.974121
737.652710	4629.433105
737.602173	4505.275879
737.551697	4475.004883
737.501160	4648.483887
737.450623	4438.616699
737.400085	4542.365723
737.349609	4659.475586
737.299072	4618.487793
737.248535	4540.015137
737.197998	4536.553711
737.147461	4559.869141
737.096924	4588.530273
737.046387	4643.947266
736.995850	4554.832520
736.945312	4484.478027
736.894775	4531.858398
736.844177	4456.182617
736.793640	4562.386230
736.743042	4524.164551
736.692566	4485.956055
736.641968	4723.072754
736.591431	4700.877441
736.540833	4499.665039
736.490295	4554.990723
736.439758	4492.769531
736.389221	4646.890137
736.338623	4496.558105
736.288086	4575.873047
736.237488	4527.036133
736.186890	4480.885254
736.136353	4504.126465
736.085815	4623.401855
736.035217	4566.587891
735.984619	4536.462891
735.934082	4573.009766
735.883423	4542.894043
735.832886	4507.456543
735.782288	4706.560059
735.731689	4601.826172
735.681152	4638.329590
735.630554	4610.891113
735.579895	4679.338867
735.529358	4606.634766
735.478760	4541.942871
735.428162	4621.014160
735.377563	4681.427734
735.326965	4632.721680
735.276367	4661.186035
735.225769	4506.098633
735.175110	4646.276855
735.124512	4605.586914
735.073914	4657.963867
735.023315	4588.045898
734.972717	4605.856445
734.922058	4735.266602
734.871521	4784.927734
734.820862	4616.749512
734.770264	4629.230469
734.719604	4572.666016
734.669006	4540.015137
734.618408	4679.919922
734.567749	4583.563965
734.517090	4718.104980
734.466492	4674.838379
734.415833	4636.892578
734.365173	4683.830078
734.314575	4669.761230
734.263916	4666.301758
734.213257	4707.908203
734.162659	4550.720703
734.112000	4793.727051
734.061401	4647.176270
734.010742	4511.272461
733.960022	4505.194336
733.909424	4671.245117
733.858826	4797.523438
733.808105	4791.398438
733.757446	4621.179199
733.706848	4763.277344
733.656189	4765.098633
733.605469	4745.756348
733.554810	4739.645020
733.504150	4678.002441
733.453491	4703.632324
733.402832	4679.026367
733.352173	4733.720215
733.301453	4706.474609
733.250793	4761.144531
733.200134	4659.936035
733.149475	4632.716309
733.098755	4719.059570
733.048096	4734.083984
732.997437	4683.106934
732.946716	4748.280762
732.896057	4689.401367
732.845398	4693.866211
732.794678	4724.708984
732.744019	4750.266113
732.693298	4670.330078
732.642639	4759.166992
732.591919	4734.616699
732.541199	4707.438477
732.490540	4674.999512
732.439819	4687.363281
732.389099	4707.625977
732.338379	4820.068848
732.287720	4787.631836
732.236938	4760.471680
732.186279	4720.158203
732.135559	4793.038574
732.084839	4768.522949
732.034119	4770.327637
731.983398	4837.899414
731.932739	4755.521973
731.881958	4883.558594
731.831238	4740.726562
731.780518	4713.615234
731.729797	4765.366699
731.679077	4761.912598
731.628357	4858.305176
731.577576	4799.666992
731.526855	4893.392578
731.476135	4713.964844
731.425354	4875.940918
731.374634	4691.327637
731.323914	4716.761719
731.273193	4744.811035
731.222412	4841.071777
731.171692	4834.984863
731.120911	4842.014648
731.070190	4843.796875
731.019470	4856.066895
730.968689	4847.359375
730.917908	4817.685547
730.867188	4753.952148
730.816406	4810.772461
730.765686	4804.698242
730.714905	4819.580078
730.664124	4881.596680
730.613342	4836.235840
730.562622	4741.149414
730.511841	4787.441406
730.461060	4749.971191
730.410278	4840.728027
730.359558	4808.493652
730.308777	4713.493652
730.257996	4885.281250
730.207214	4790.300293
730.156433	4914.956543
730.105591	4775.566895
730.054871	4813.938965
730.004089	4737.326660
729.953308	4898.479980
729.902527	4819.267090
729.851685	4787.090332
729.800903	4814.981445
729.750122	4772.373535
729.699280	4766.324219
729.648499	4901.205566
729.597717	4871.650879
729.546936	4899.502441
729.496094	4961.253418
729.445312	4730.888184
729.394470	4962.136719
729.343689	4841.348633
729.292908	4879.606445
729.242065	4868.333496
729.191284	4911.784668
729.140442	4921.352051
729.089600	4837.142090
729.038757	4864.949219
728.987976	4892.746582
728.937195	4792.964355
728.886292	4875.427246
728.835449	4911.015137
728.784668	4839.904297
728.733826	4833.859375
728.682983	4916.256836
728.632202	4928.405273
728.581299	4828.737305
728.530457	4851.295898
728.479675	4686.690918
728.428772	4789.833008
728.377991	4903.332520
728.327148	4897.283691
728.276306	4909.419434
728.225403	4939.730957
728.174561	4988.208008
728.123718	4886.087402
728.072876	5066.940918
728.022034	5029.725098
727.971191	4909.485840
727.920288	4882.687012
727.869446	4907.776855
727.818604	4785.027832
727.767761	4859.393555
727.716858	4936.325684
727.666016	4891.399902
727.615112	4986.441406
727.564270	4892.288086
727.513428	5093.519043
727.462524	4991.608398
727.411621	4856.064453
727.360779	4803.429688
727.309875	4812.949219
727.258972	4926.007324
727.208130	4829.389648
727.157227	5004.508789
727.106323	4905.323730
727.055481	5002.765625
727.004578	5038.102051
726.953674	4879.488281
726.902832	4963.956055
726.851868	4950.166504
726.801025	4907.952148
726.750122	4932.937500
726.699219	4813.232422
726.648315	5019.045410
726.597412	4922.611328
726.546509	4988.891602
726.495605	4969.949707
726.444702	4932.944824
726.393799	4968.217285
726.342896	4982.833984
726.291931	4994.865234
726.241028	4960.460449
726.190125	4853.853027
726.139221	4997.411133
726.088318	4981.070312
726.037354	4990.513184
725.986450	4958.715332
725.935547	5037.732910
725.884583	4938.951172
725.833618	4899.450684
725.782715	5037.673340
725.731812	4967.268555
725.680847	5105.430176
725.629883	5011.870605
725.578979	4856.574219
725.528076	4999.829102
725.477112	4983.520020
725.426147	4998.084961
725.375183	5251.831543
725.324219	5091.484863
725.273315	5003.182129
725.222351	4961.180176
725.171448	5006.576660
725.120422	4946.600586
725.069519	5048.505859
725.018555	5060.468750
724.967590	5085.268555
724.916626	4945.716309
724.865662	4939.718262
724.814697	5008.164062
724.763733	5112.517578
724.712769	4957.660156
724.661804	4928.572754
724.610840	5050.840820
724.559875	5039.700195
724.508911	5118.312988
724.457886	4881.546387
724.406921	5078.074707
724.355957	5113.069336
724.304993	5045.551270
724.254028	5126.655762
724.203003	5051.474121
724.152039	5045.469238
724.101013	5121.409180
724.050049	5020.664551
723.999023	5109.380859
723.948059	5077.775879
723.897034	5125.507812
723.846069	4999.247559
723.795044	5151.854980
723.744080	5094.688477
723.693054	5101.469238
723.642029	4962.517090
723.591064	5048.562012
723.540039	5034.900391
723.489075	4959.915527
723.438049	5158.330566
723.386963	5274.933594
723.335999	5016.057129
723.284973	5015.180176
723.233948	4970.900879
723.182922	5069.585449
723.131897	5145.265625
723.080933	5157.124512
723.029846	5013.349121
722.978882	5081.345703
722.927795	5225.832031
722.876770	5148.418457
722.825745	5063.383301
722.774719	5001.319336
722.723694	5217.079590
722.672668	5098.949707
722.621643	5131.178711
722.570557	5199.058105
722.519531	5139.570801
722.468506	5118.300293
722.417419	5175.962402
722.366394	5047.780273
722.315369	4960.364258
722.264343	5117.263672
722.213257	5129.088867
722.162170	5110.385254
722.111145	4900.939941
722.060120	5126.396484
722.009033	5186.517090
721.958008	5139.854004
721.906921	4981.379883
721.855835	5008.459473
721.804810	5220.995605
721.753723	5118.474121
721.702637	5173.452637
721.651611	5121.760742
721.600464	5100.553223
721.549438	5203.734375
721.498352	4959.178711
721.447266	5100.411621
721.396179	5140.111328
721.345093	5182.333496
721.294006	5181.426270
721.242920	5084.160156
721.191895	5141.581543
721.140747	5100.123047
721.089661	5233.553223
721.038635	5235.170410
720.987488	5219.051758
720.936401	5230.802734
720.885315	5265.343262
720.834229	5325.192871
720.783142	5291.347168
720.731995	5080.321777
720.680908	5066.777344
720.629761	5035.524414
720.578674	5176.319824
720.527527	5190.589844
720.476440	5128.981934
720.425354	5216.584961
720.374207	5218.198730
720.323120	5267.838867
720.272034	5145.604492
720.220886	5260.937988
720.169800	5244.856934
720.118652	5241.411621
720.067566	5192.506836
720.016418	5290.075195
719.965271	5218.457031
719.914185	5273.074219
719.862976	5193.912598
719.811890	5097.115234
719.760742	5149.201660
719.709595	5221.449219
719.658447	5170.093262
719.607300	5244.832520
719.556213	5218.701660
719.505066	5278.281738
719.453918	5305.078125
719.402771	5314.226074
719.351624	5199.923340
719.300476	5261.983398
719.249329	5354.242676
719.198120	5247.546387
719.147034	5294.458984
719.095886	5358.975098
719.044678	5151.666016
718.993530	5399.870117
718.942383	5222.815430
718.891235	5204.291016
718.840027	5384.451660
718.788879	5403.622070
718.737732	5075.848145
718.686584	5338.884766
718.635376	5378.157715
718.584167	5384.751465
718.533020	5333.560059
718.481812	5463.238770
718.430664	5371.868652
718.379456	5378.458008
718.328308	5312.240234
718.277100	5223.454590
718.225952	5267.709961
718.174744	5457.482910
718.123535	5326.068848
718.072388	5297.541992
718.021179	5494.732422
717.969971	5393.469727
717.918762	5292.242676
717.867615	5268.753418
717.816406	5312.937500
717.765198	5479.882812
717.713989	5346.143066
717.662781	5307.631348
717.611572	5366.802734
717.560364	5370.866699
717.509155	5394.957520
717.457947	5356.463379
717.406738	5355.521484
717.355530	5392.112305
717.304321	5368.648438
717.253113	5252.646484
717.201904	5424.279297
717.150635	5423.325195
717.099426	5334.873535
717.048218	5386.424805
716.997009	5175.556152
716.945740	5299.576660
716.894531	5456.030273
716.843323	5377.640137
716.792114	5361.710449
716.740784	5353.276367
716.689575	5512.105469
716.638367	5573.535156
716.587158	5362.928711
716.535889	5416.876953
716.484619	5248.781250
716.433411	5342.638184
716.382141	5493.818848
716.330872	5375.664551
716.279663	5374.718262
716.228394	5411.159180
716.177185	5492.443848
716.125854	5424.203613
716.074646	5490.509766
716.023376	5422.293945
715.972107	5486.086426
715.920837	5392.996094
715.869629	5446.813477
715.818298	5450.832031
715.767090	5315.491699
715.715820	5396.662598
715.664551	5378.298340
715.613281	5486.788086
715.562012	5376.403809
715.510681	5390.374512
715.459412	5486.375000
715.408142	5520.205078
715.356873	5514.262207
715.305603	5418.876465
715.254333	5467.604492
715.203003	5424.417969
715.151733	5597.291016
715.100403	5439.886230
715.049133	5428.998047
714.997864	5450.378418
714.946533	5439.491699
714.895264	5371.543945
714.843994	5437.574219
714.792664	5523.422852
714.741394	5371.183105
714.690063	5422.302246
714.638794	5513.065430
714.587463	5427.825684
714.536194	5521.033691
714.484863	5435.822266
714.433594	5484.406250
714.382263	5347.220215
714.330933	5593.904297
714.279602	5483.980957
714.228271	5517.669434
714.176941	5402.847656
714.125671	5399.419922
714.074341	5480.112305
714.023010	5607.775879
713.971680	5389.143066
713.920349	5526.667969
713.869019	5508.386230
713.817749	5618.650391
713.766357	5511.385254
713.715027	5490.644531
713.663696	5576.146484
713.612366	5525.759277
713.560974	5500.086426
713.509705	5471.953613
713.458313	5631.463379
713.406982	5546.542969
713.355652	5580.115234
713.304321	5497.701172
713.252930	5662.026855
713.201599	5693.094238
713.150269	5512.053223
713.098938	5604.780273
713.047546	5566.810059
712.996216	5432.720215
712.944824	5707.785156
712.893494	5521.971680
712.842102	5449.551270
712.790710	5754.024902
712.739380	5516.583496
712.688049	5710.132324
712.636658	5723.895020
712.585266	5742.575195
712.533875	5554.523438
712.482544	5797.139648
712.431152	5665.727539
712.379761	5603.233398
712.328430	5597.324219
712.277039	5726.653809
712.225647	5669.098633
712.174255	5682.844238
712.122864	5760.480957
712.071472	5803.690918
712.020081	5851.798340
711.968689	5661.633301
711.917297	5631.162598
711.865906	5664.541992
711.814514	5538.338867
711.763123	5687.083984
711.711731	5727.797852
711.660339	5822.476562
711.608948	5563.860840
711.557495	5678.156738
711.506104	5647.724609
711.454712	5612.398926
711.403259	5608.954590
711.351868	5730.514160
711.300476	5624.124512
711.249084	5833.843750
711.197632	5678.478516
711.146240	5635.835449
711.094788	5617.696289
711.043335	5628.944336
710.991943	5804.204102
710.940552	5634.294922
710.889099	5567.225098
710.837708	5664.107910
710.786255	5763.401855
710.734802	5838.202637
710.683411	5536.385254
710.631958	5691.882812
710.580566	5764.210938
710.529053	5709.420410
710.477661	5833.036621
710.426208	5751.376953
710.374817	5625.775391
710.323364	5771.321289
710.271912	5653.086426
710.220398	5676.500488
710.169006	5760.932617
710.117554	5703.777344
710.066101	5714.968262
710.014648	5752.992188
709.963196	5895.894043
709.911682	5694.858887
709.860291	5786.512207
709.808838	5687.964844
709.757324	5845.402344
709.705872	5751.753418
709.654419	5775.101562
709.602966	5815.495605
709.551453	5863.182617
709.500000	5813.434570
709.448547	5627.342285
709.397095	5769.985840
709.345581	5722.713867
709.294067	5707.097168
709.242676	5820.450195
709.191101	5846.180176
709.139648	5781.899902
709.088196	5807.626953
709.036682	5933.039062
708.985168	5662.129883
708.933716	5707.309570
708.882202	5720.878906
708.830750	5860.795410
708.779236	5806.309082
708.727783	5780.989258
708.676270	5736.249512
708.624756	5866.351074
708.573242	5826.466797
708.521790	5890.969238
708.470215	5807.412109
708.418701	5891.305664
708.367249	5785.943359
708.315735	5753.384766
708.264221	5812.991699
708.212708	5816.809082
708.161194	5886.080078
708.109680	5773.539551
708.058167	5862.180176
708.006653	5778.759277
707.955139	5780.155762
707.903625	5917.189453
707.852112	5785.368652
707.800598	5883.612305
707.749084	5979.399902
707.697510	5946.873535
707.645935	5839.339355
707.594482	5879.434570
707.542908	5771.950195
707.491333	5783.018555
707.439819	5859.375000
707.388306	5894.601074
707.336792	6043.431152
707.285217	5991.601562
707.233704	5884.210938
707.182129	5873.500977
707.130615	5988.409180
707.079041	5975.269043
707.027466	5836.563477
706.975952	5982.802734
706.924377	5911.735352
706.872803	5891.376953
706.821289	6013.396973
706.769714	5956.837402
706.718201	5890.648438
706.666626	5860.659668
706.615051	5989.831543
706.563477	5887.507324
706.511902	5968.417969
706.460327	6167.393555
706.408813	6007.260254
706.357178	6035.102539
706.305603	5952.130371
706.254028	6018.506348
706.202454	6000.580078
706.150879	5999.513184
706.099304	5943.083008
706.047791	6081.611816
705.996155	6022.780762
705.944580	5992.839844
705.893005	6011.016602
705.841431	5769.453125
705.789795	6088.227051
705.738220	6058.294922
705.686646	5903.382812
705.635010	6096.993652
705.583435	5980.574219
705.531860	6049.178711
705.480225	5980.847656
705.428650	6104.662109
705.377014	5966.713379
705.325439	5994.459473
705.273865	6111.003906
705.222229	6203.508789
705.170654	6123.224609
705.119019	6035.771973
705.067383	6017.907715
705.015808	6086.380859
704.964172	5936.641602
704.912598	6050.652344
704.860962	6190.986816
704.809326	6233.019531
704.757690	6052.211914
704.706055	6103.835938
704.654480	6011.734375
704.602844	6187.870117
704.551208	6198.739258
704.499573	6099.487793
704.447937	6239.611816
704.396301	6188.247559
704.344666	6179.967285
704.293030	6171.689453
704.241394	6213.640625
704.189758	6104.925781
704.138123	6072.756836
704.086487	6145.777344
704.034851	6072.981934
703.983154	6098.185059
703.931519	6032.590820
703.879883	6139.007812
703.828247	6319.423828
703.776611	6005.486328
703.724915	6233.609863
703.673279	6160.888184
703.621582	6217.067383
703.569946	6225.503418
703.518311	6391.395020
703.466614	6290.071777
703.414978	6200.708984
703.363342	6154.298340
703.311646	6177.041016
703.259949	6259.365723
703.208313	6208.202148
703.156616	6207.094238
703.104919	6279.839355
703.053284	6078.638184
703.001587	6229.968750
702.949890	6083.612305
702.898254	6094.430176
702.846558	6224.253906
702.794922	6246.940918
702.743225	6336.241699
702.691528	6254.227051
702.639832	6295.923828
702.588135	6144.980469
702.536438	6229.479004
702.484741	6216.480957
702.433044	6077.515625
702.381348	6371.103027
702.329651	6282.054688
702.277954	6309.439453
702.226257	6156.305176
702.174561	6209.823730
702.122864	6249.077148
702.071167	6364.279297
702.019409	6251.591797
701.967712	6226.745117
701.916016	6311.045410
701.864319	6347.872559
701.812561	6370.455566
701.760864	6205.697754
701.709106	6306.536621
701.657471	6056.511719
701.605713	6297.172852
701.554016	6315.004395
701.502258	6320.983398
701.450500	6258.265625
701.398804	6117.415039
701.347107	6357.849121
701.295349	6252.542969
701.243652	6173.312012
701.191895	6311.840332
701.140198	6393.529785
701.088440	6420.775879
701.036682	6374.686035
700.984924	6371.181152
700.933228	6247.086426
700.881470	6451.646484
700.829712	6237.760742
700.777954	6302.816406
700.726196	6282.786621
700.674438	6208.427734
700.622681	6365.570801
700.570984	6321.923828
700.519226	6332.598633
700.467468	6437.698242
700.415710	6363.376953
700.363953	6317.400879
700.312134	6370.537598
700.260437	6289.190430
700.208679	6337.595703
700.156860	6416.640137
700.105103	6384.840820
700.053345	6404.914062
700.001526	6309.490723
699.949768	6400.264648
699.898010	6450.952637
699.846252	6435.664062
699.794434	6479.261230
699.742676	6478.101074
699.690918	6312.133301
699.639099	6348.666504
699.587341	6559.349609
699.535522	6374.630371
699.483826	6418.190430
699.432007	6511.132324
699.380249	6498.206543
699.328369	6440.607910
699.276611	6427.699219
699.224854	6388.937988
699.173035	6474.750000
699.121216	6273.860352
699.069458	6432.491211
699.017639	6433.687500
698.965820	6510.035156
698.914062	6504.172363
698.862183	6533.526367
698.810425	6504.188477
698.758606	6646.178223
698.706787	6586.327148
698.654968	6416.236328
698.603149	6553.474121
698.551331	6528.847656
698.499512	6576.916016
698.447693	6575.736816
698.395874	6518.304688
698.344055	6646.025879
698.292236	6630.775879
698.240417	6650.670410
698.188599	6710.374512
698.136780	6507.778809
698.084961	6696.260742
698.033142	6573.331055
697.981262	6560.449707
697.929443	6601.394043
697.877625	6637.644531
697.825745	6496.098633
697.773926	6604.858398
697.722046	6496.105957
697.670227	6553.390137
697.618408	6776.621094
697.566528	6672.570312
697.514709	6711.097168
697.462830	6740.264648
697.411011	6521.816895
697.359131	6593.045898
697.307312	6619.882812
697.255432	6775.115234
697.203613	6699.203613
697.151733	6602.314941
697.099854	6596.462891
697.047974	6662.934082
696.996094	6668.735352
696.944275	6597.574219
696.892395	6512.447754
696.840515	6674.468262
696.788696	6808.459473
696.736816	6753.636230
696.684875	6668.541992
696.633057	6672.003418
696.581177	6747.667969
696.529297	6685.907715
696.477417	6782.497070
696.425537	6699.800781
696.373596	6724.199707
696.321777	6743.935059
696.269897	6645.002441
696.218018	6676.375977
696.166138	6768.209473
696.114197	6729.786133
696.062317	6800.651855
696.010437	6608.812988
695.958496	6747.075195
695.906616	6850.431152
695.854736	6579.692383
695.802795	6785.249023
695.750916	6730.611328
695.699036	6615.619141
695.647095	6774.624023
695.595215	6729.302246
695.543335	6697.920898
695.491394	6580.695801
695.439453	6785.991699
695.387573	6826.523438
695.335632	6723.251953
695.283752	6780.011230
695.231812	6600.280273
695.179932	6680.219238
695.127991	6736.954590
695.076050	6749.645020
695.024170	6658.080566
694.972229	6726.369629
694.920288	6762.212402
694.868347	6779.518555
694.816406	6701.903320
694.764526	6753.932129
694.712585	6803.627930
694.660645	6788.520508
694.608643	6801.178223
694.556763	6795.328125
694.504761	6731.666992
694.452881	6753.575684
694.400940	6837.891113
694.348938	6936.042969
694.296997	6840.049805
694.245056	6660.916504
694.193115	6782.146484
694.141174	6797.091797
694.089233	6911.325684
694.037292	6746.159180
693.985352	6821.119141
693.933350	7239.930664
693.881409	7333.233398
693.829468	6981.235352
693.777466	6836.963867
693.725525	6828.812988
693.673584	6882.922852
693.621582	6800.992188
693.569641	6942.676758
693.517639	6782.408691
693.465698	6887.178223
693.413696	6839.861328
693.361755	7029.806152
693.309753	7132.170410
693.257751	6817.742676
693.205811	6851.044922
693.153809	6891.239746
693.101807	7016.566406
693.049866	6971.584961
692.997803	6981.830078
692.945862	6762.068359
692.893860	6774.646484
692.841858	6945.863770
692.789917	6866.452637
692.737915	7099.646973
692.685913	6847.889648
692.633911	7012.076660
692.581909	6978.651367
692.529907	6903.897461
692.477905	6918.726074
692.425903	6938.140137
692.373901	7115.934082
692.321899	6993.012207
692.269897	7028.464355
692.217896	7029.489746
692.165833	7016.751953
692.113831	6969.617188
692.061829	6970.651855
692.009827	7113.824707
691.957825	7217.979492
691.905762	7001.252930
691.853760	7009.153809
691.801697	6943.742676
691.749695	7024.946289
691.697693	6982.456055
691.645630	6974.326172
691.593628	7101.264648
691.541565	7184.668945
691.489563	7165.063477
691.437561	7207.241211
691.385498	7105.284668
691.333435	7007.939453
691.281433	7040.974609
691.229370	7035.129395
691.177368	6969.851562
691.125305	7064.584473
691.073242	7026.745605
691.021179	7034.614746
690.969177	7154.410645
690.917114	7164.536621
690.865051	6902.926270
690.812988	7175.645020
690.760986	7160.651855
690.708923	6995.036621
690.656860	6986.926270
690.604797	7131.672852
690.552734	7025.457520
690.500671	7058.395508
690.448608	7164.287109
690.396606	7117.395996
690.344482	7045.449219
690.292419	7082.916504
690.240356	7181.890137
690.188293	6975.561523
690.136169	7024.408691
690.084167	7182.547363
690.032043	6985.437012
689.979980	7123.037109
689.927856	7096.711426
689.875793	7004.401855
689.823730	7014.510254
689.771606	7061.011719
689.719543	7293.996582
689.667480	7213.086914
689.615417	7209.507812
689.563293	7130.915039
689.511230	7175.079102
689.459106	7182.869141
689.407043	7072.516113
689.354919	7148.467285
689.302856	7256.185547
689.250732	7250.330078
689.198669	7101.448730
689.146545	6993.478516
689.094421	7284.972168
689.042358	7247.348145
688.990234	7121.260254
688.938110	7278.746094
688.886047	7136.822754
688.833862	7341.863770
688.781738	7184.110840
688.729675	7427.600098
688.677551	7095.392578
688.625427	7112.232910
688.573303	7212.884766
688.521179	7299.910645
688.469055	7212.535156
688.416992	7227.076660
688.364807	7169.173828
688.312683	7188.243652
688.260559	7263.878906
688.208435	7203.737305
688.156311	7186.596680
688.104187	7339.086426
688.052063	7281.224609
687.999878	7279.904297
687.947754	7303.448730
687.895630	7322.464355
687.843445	7178.780762
687.791382	7308.512207
687.739197	7338.809570
687.687073	7389.420898
687.634949	7329.373047
687.582764	7255.801270
687.530640	7252.227539
687.478455	7334.411133
687.426331	7249.596191
687.374146	7277.607422
687.321960	7418.384277
687.269836	7311.047852
687.217651	7377.361816
687.165466	7547.348633
687.113342	7370.176270
687.061218	7193.067871
687.009033	7299.908691
686.956848	7210.729980
686.904663	7313.023926
686.852539	7455.812988
686.800354	7276.596680
686.748169	7309.040527
686.696045	7285.207031
686.643799	7241.130371
686.591614	7338.805664
686.539490	7431.946777
686.487305	7414.854004
686.435120	7478.715332
686.382935	7335.723145
686.330688	7431.043457
686.278564	7447.671875
686.226379	7554.170898
686.174133	7435.979492
686.121948	7320.076172
686.069763	7370.397461
686.017578	7429.680664
685.965393	7309.351562
685.913208	7395.557617
685.861023	7616.375977
685.808777	7464.666016
685.756592	7404.984375
685.704407	7479.895020
685.652161	7395.564941
685.599976	7297.812500
685.547729	7574.446777
685.495544	7655.994629
685.443359	7432.762207
685.391113	7536.709473
685.338867	7409.898926
685.286682	7491.415527
685.234497	7438.551758
685.182251	7403.617188
685.130005	7525.380371
685.077820	7595.625977
685.025574	7618.856934
684.973328	7568.253418
684.921082	7307.415039
684.868896	7446.973633
684.816650	7550.707031
684.764404	7616.397949
684.712219	7572.544922
684.659973	7367.808594
684.607727	7384.341797
684.555481	7572.877930
684.503235	7553.631348
684.451050	7625.947754
684.398804	7399.060059
684.346497	7536.112793
684.294312	7619.550781
684.242004	7716.347168
684.189758	7444.985840
684.137512	7445.860352
684.085266	7486.878906
684.033020	7429.769531
683.980774	7559.951660
683.928528	7658.879883
683.876282	7510.396973
683.824036	7653.861328
683.771729	7643.555664
683.719482	7615.434082
683.667175	7629.635254
683.614929	7619.338867
683.562683	7602.367188
683.510376	7669.979980
683.458130	7604.046875
683.405823	7660.509277
683.353577	7532.313965
683.301331	7470.889160
683.249023	7689.676758
683.196716	7677.158203
683.144470	7702.433594
683.092163	7629.908203
683.039917	7477.413086
682.987610	7578.248535
682.935364	7645.726562
682.883057	7599.914062
682.830750	7858.325684
682.778442	7708.146484
682.726196	7582.437988
682.673889	7605.466797
682.621643	7712.804199
682.569275	7635.969238
682.517029	7696.681641
682.464722	7584.394531
682.412415	7467.712891
682.360107	7597.144531
682.307800	7515.965820
682.255493	7638.692383
682.203186	7743.648926
682.150879	7638.119141
682.098572	7636.725098
682.046204	7748.266602
681.993958	7591.870605
681.941650	7623.688965
681.889343	7655.495117
681.837036	7636.394531
681.784668	7597.389160
681.732300	7635.817871
681.679993	7691.924805
681.627686	7652.929688
681.575378	7613.948242
681.523010	7771.705078
681.470703	7805.645020
681.418396	7806.428711
681.366089	7663.615723
681.313721	7668.841797
681.261414	7612.231445
681.209045	7800.725098
681.156738	7794.884277
681.104370	7791.252930
681.052002	7763.347656
680.999695	7680.293945
680.947388	7736.244629
680.895020	7655.431152
680.842651	7806.186035
680.790344	7914.995605
680.737976	7754.836914
680.685608	7707.136719
680.633240	7732.169434
680.580933	7743.974609
680.528564	7727.139160
680.476196	7822.627930
680.423828	7711.101562
680.371460	7659.056641
680.319092	7844.750000
680.266724	7827.910156
680.214355	7780.271484
680.161987	7836.045410
680.109619	7680.646973
680.057312	7754.011230
680.004883	7774.579102
679.952515	7768.759766
679.900146	7776.129883
679.847778	7746.139160
679.795410	7812.831055
679.742981	7864.121582
679.690674	7777.027344
679.638245	7722.902344
679.585876	7602.933105
679.533447	7801.292969
679.481140	7718.661621
679.428711	7864.264648
679.376282	7981.293457
679.323914	7940.349609
679.271545	7901.613281
679.219116	7887.010254
679.166748	7918.449707
679.114380	7877.545898
679.061951	7854.187988
679.009583	7982.021973
678.957153	7842.548340
678.904785	7976.907227
678.852356	7701.713867
678.799927	7899.542969
678.747559	8031.627441
678.695129	7951.364258
678.642700	7840.494629
678.590332	7979.080078
678.537903	7951.368164
678.485474	8017.708984
678.433044	7815.068359
678.380676	7962.300293
678.328186	7980.513184
678.275757	7994.348145
678.223389	7981.957031
678.170959	8037.293945
678.118530	7935.345215
678.066101	7833.433594
678.013672	7847.280762
677.961243	7712.676270
677.908813	7840.037109
677.856384	7897.519531
677.803955	7743.342285
677.751526	7990.605469
677.699097	7934.613770
677.646606	8005.119141
677.594177	8077.778320
677.541748	7899.729492
677.489319	7845.973145
677.436829	7805.310547
677.384399	8006.491211
677.331970	7935.318359
677.279480	7883.771484
677.227051	7832.243164
677.174622	7824.274414
677.122192	8199.396484
677.069702	8054.259277
677.017212	8072.363281
676.964783	7920.775391
676.912354	7901.920898
676.859863	7911.342773
676.807434	8003.382324
676.754944	7993.217285
676.702454	7880.903320
676.649963	8029.395996
676.597534	8056.165527
676.545044	7987.345703
676.492615	7792.583984
676.440125	7986.582520
676.387634	7974.260254
676.335205	8159.470703
676.282715	7930.094727
676.230225	7945.996582
676.177734	7896.808105
676.125244	7871.497070
676.072754	8054.386230
676.020264	8042.064453
675.967773	8068.768066
675.915283	7950.242188
675.862793	8089.639160
675.810303	8062.151855
675.757812	8116.992676
675.705322	8044.026367
675.652832	8007.899902
675.600342	8034.572754
675.547852	8085.047363
675.495361	7901.761230
675.442810	8157.809082
675.390320	8121.692871
675.337830	8128.851074
675.285278	8114.379395
675.232788	8058.829590
675.180298	8046.537598
675.127808	8042.895508
675.075256	8073.831543
675.022766	8085.310059
674.970276	8114.065918
674.917725	8004.578125
674.865234	8031.178223
674.812683	7919.585449
674.760132	8056.284668
674.707642	8013.793945
674.655090	8146.108887
674.602600	7967.692871
674.550049	8011.525391
674.497498	8145.923340
674.445007	8170.299316
674.392456	8080.401855
674.339905	7818.094727
674.287415	8062.339844
674.234863	8116.877441
674.182312	7861.170898
674.129822	8057.885254
674.077271	8054.247070
674.024658	8255.159180
673.972168	8176.138672
673.919617	7978.768555
673.867065	8039.704590
673.814514	8163.013672
673.761963	8090.520996
673.709412	7977.189941
673.656860	8053.132812
673.604309	8137.647461
673.551758	8125.399414
673.499146	8181.929199
673.446655	8092.320801
673.394104	8118.757812
673.341492	8177.404785
673.288940	8066.369141
673.236389	8206.596680
673.183777	8288.808594
673.131287	8199.277344
673.078674	7978.872070
673.026123	8112.574219
672.973511	8098.206543
672.920959	8251.139648
672.868408	8247.472656
672.815796	8160.189941
672.763245	8165.115234
672.710632	8264.340820
672.658081	8067.817383
672.605469	8164.880859
672.552917	8298.323242
672.500305	8204.701172
672.447754	8111.111816
672.395142	8280.884766
672.342529	8138.084473
672.289978	8023.157715
672.237366	8207.829102
672.184753	8150.691895
672.132141	8273.243164
672.079590	8288.823242
672.026978	8248.806641
671.974365	8097.643555
671.921814	8269.270508
671.869202	8186.540527
671.816589	8296.127930
671.763977	8341.589844
671.711365	8226.854492
671.658752	8285.125000
671.606140	8155.497070
671.553528	8247.910156
671.500916	8289.069336
671.448303	8221.391602
671.395691	8115.336914
671.343079	8271.676758
671.290466	8212.568359
671.237793	8223.843750
671.185181	8166.896973
671.132568	8274.088867
671.079956	8278.952148
671.027344	8198.588867
670.974731	8263.109375
670.922058	8316.957031
670.869446	8300.512695
670.816772	8203.171875
670.764160	8216.554688
670.711548	8285.267578
670.658875	8215.643555
670.606262	8031.162598
670.553589	8084.980469
670.500977	8168.551758
670.448303	8103.251953
670.395691	8237.809570
670.343018	8285.171875
670.290405	8141.256836
670.237732	8318.225586
670.185120	8235.961914
670.132446	8075.144043
670.079773	8164.960938
670.027161	8019.076660
669.974426	8200.148438
669.921814	8247.444336
669.869141	8273.502930
669.816528	8327.130859
669.763855	8278.923828
669.711121	8360.100586
669.658508	8383.997070
669.605835	8200.125977
669.553162	8192.248047
669.500488	8283.975586
669.447815	8229.471680
669.395142	8230.065430
669.342468	8330.206055
669.289795	8246.075195
669.237122	8174.678223
669.184448	8215.500977
669.131775	8207.628906
669.079102	8235.733398
669.026367	8191.893066
668.973694	8327.868164
668.921021	8129.640137
668.868347	8295.178711
668.815613	8308.439453
668.762939	8340.718750
668.710266	8484.992188
668.657593	8136.898438
668.604858	8376.218750
668.552185	8207.806641
668.499451	8227.402344
668.446777	8371.560547
668.394104	8247.571289
668.341370	8387.450195
668.288635	8459.751953
668.235962	8249.312500
668.183289	8441.847656
668.130554	8286.323242
668.077881	8310.089844
668.025146	8097.724121
667.972412	8578.917969
667.919739	8379.225586
667.867004	8445.096680
667.814270	8344.515625
667.761536	8456.706055
667.708801	8257.182617
667.656128	8354.608398
667.603394	8395.160156
667.550720	8412.543945
667.497925	8312.079102
667.445251	8300.015625
667.392517	8334.235352
667.339783	8458.876953
667.287048	8331.140625
667.234314	8483.066406
667.181580	8361.677734
667.128845	8231.927734
667.076050	8301.839844
667.023376	8602.813477
666.970642	8292.454102
666.917908	8513.516602
666.865112	8299.871094
666.812378	8396.994141
666.759644	8345.061523
666.706909	8316.230469
666.654114	8344.057617
666.601379	8365.582031
666.548645	8355.637695
666.495850	8427.476562
666.443115	8226.740234
666.390381	8306.959961
666.337646	8397.628906
666.284851	8419.116211
666.232117	8396.601562
666.179321	8325.918945
666.126587	8389.290039
666.073792	8553.139648
666.020996	8388.263672
665.968262	8346.936523
665.915527	8349.569336
665.862732	8377.307617
665.809937	8409.218750
665.757202	8321.904297
665.704407	8318.264648
665.651611	8258.178711
665.598877	8457.309570
665.546082	8587.399414
665.493286	8301.627930
665.440491	8385.737305
665.387756	8567.984375
665.334961	8405.587891
665.282166	8481.277344
665.229370	8293.905273
665.176575	8482.293945
665.123779	8464.020508
665.071045	8618.924805
665.018188	8429.579102
664.965393	8503.091797
664.912598	8299.240234
664.859802	8616.676758
664.807007	8458.737305
664.754211	8365.462891
664.701416	8476.422852
664.648621	8454.010742
664.595825	8489.928711
664.542969	8486.264648
664.490173	8503.422852
664.437378	8337.379883
664.384583	8410.755859
664.331787	8419.592773
664.278931	8432.587891
664.226135	8431.016602
664.173279	8323.375000
664.120483	8531.844727
664.067688	8309.876953
664.014832	8528.664062
663.962036	8443.943359
663.909180	8342.631836
663.856384	8447.027344
663.803528	8484.916992
663.750671	8435.570312
663.697876	8305.265625
663.645081	8430.348633
663.592224	8260.657227
663.539368	8406.452148
663.486572	8369.613281
663.433716	8654.316406
663.380859	8387.230469
663.328064	8364.929688
663.275208	8456.664062
663.222351	8301.696289
663.169556	8277.350586
663.116638	8317.247070
663.063782	8483.500000
663.010925	8544.054688
662.958130	8451.340820
662.905273	8284.122070
662.852417	8524.780273
662.799561	8568.722656
662.746704	8463.655273
662.693848	8439.316406
662.640991	8398.437500
662.588135	8413.415039
662.535278	8418.046875
662.482422	8433.014648
662.429504	8299.148438
662.376648	8491.864258
662.323792	8345.638672
662.270935	8544.469727
662.218079	8421.009766
662.165222	8514.431641
662.112305	8446.769531
662.059448	8533.957031
662.006531	8383.758789
661.953674	8493.624023
661.900818	8419.825195
661.847961	8509.014648
661.795044	8490.924805
661.742188	8526.454102
661.689270	8493.935547
661.636353	8372.794922
661.583496	8579.376953
661.530640	8482.990234
661.477722	8532.906250
661.424805	8636.356445
661.371948	8484.410156
661.319031	8497.236328
661.266174	8650.038086
661.213257	8514.639648
661.160339	8533.624023
661.107483	8515.569336
661.054565	8542.774414
661.001648	8582.308594
660.948730	8593.040039
660.895813	8698.336914
660.842957	8692.597656
660.790039	8532.729492
660.737122	8364.701172
660.684204	8490.502930
660.631287	8552.585938
660.578369	8534.556641
660.525452	8571.968750
660.472534	8473.883789
660.419617	8570.812500
660.366699	8719.003906
660.313782	8579.912109
660.260864	8648.047852
660.207947	8494.665039
660.154968	8632.505859
660.102112	8503.783203
660.049133	8682.565430
659.996216	8711.678711
659.943298	8281.818359
659.890320	8501.510742
659.837402	8448.712891
659.784485	8563.854492
659.731567	8689.188477
659.678589	8605.679688
659.625610	8585.646484
659.572693	8610.638672
659.519775	8529.236328
659.466858	8629.912109
659.413879	8577.166016
659.360962	8581.692383
659.307983	8506.487305
659.255005	8594.826172
659.202087	8474.687500
659.149109	8722.367188
659.096130	8414.311523
659.043213	8657.824219
658.990234	8617.401367
658.937256	8499.410156
658.884338	8661.118164
658.831360	8516.630859
658.778381	8572.167969
658.725464	8582.799805
658.672485	8503.679688
658.619507	8551.028320
658.566528	8557.580078
658.513550	8582.475586
658.460571	8678.699219
658.407654	8640.389648
658.354614	8691.741211
658.301697	8616.775391
658.248718	8698.661133
658.195740	8648.157227
658.142761	8611.922852
658.089783	8655.087891
658.036804	8677.884766
657.983826	8613.176758
657.930786	8762.104492
657.877808	8603.839844
657.824829	8579.854492
657.771851	8755.134766
657.718872	8676.241211
657.665833	8516.078125
657.612854	8715.656250
657.559875	8571.798828
657.506836	8726.600586
657.453857	8523.896484
657.400879	8573.059570
657.347839	8579.568359
657.294861	8715.983398
657.241882	8692.021484
657.188843	8649.806641
657.135864	8698.897461
657.082825	8614.102539
657.029846	8604.371094
656.976807	8704.128906
656.923767	8562.620117
656.870789	8759.631836
656.817749	8713.405273
656.764771	8612.492188
656.711731	8679.743164
656.658752	8663.934570
656.605652	8690.652344
656.552673	8559.452148
656.499634	8853.358398
656.446594	8691.820312
656.393616	8813.607422
656.340576	8660.228516
656.287537	8577.696289
656.234497	8768.189453
656.181458	8655.339844
656.128479	8682.010742
656.075378	8755.155273
656.022339	8694.908203
655.969299	8786.204102
655.916321	8622.958008
655.863220	8762.701172
655.810181	8633.845703
655.757141	8815.926758
655.704102	8616.465820
655.651062	8794.444336
655.598022	8764.541992
655.544983	8686.236328
655.491943	8805.611328
655.438843	8638.601562
655.385803	8832.536133
655.332764	8844.981445
655.279663	8863.468750
655.226624	8656.272461
655.173584	8916.537109
655.120483	8791.990234
655.067444	8921.232422
655.014404	8724.247070
654.961304	8632.014648
654.908264	8747.123047
654.855164	8731.388672
654.802124	8922.886719
654.749023	8806.546875
654.695984	8802.875000
654.642944	8779.096680
654.589844	8827.701172
654.536743	8890.357422
654.483704	8786.189453
654.430603	8788.550781
654.377563	8738.679688
654.324402	8793.269531
654.271362	8705.260742
654.218262	8896.363281
654.165161	8872.603516
654.112122	8856.880859
654.059021	8780.964844
654.005920	8885.638672
653.952820	8771.632812
653.899719	8882.285156
653.846619	8874.592773
653.793518	8786.714844
653.740417	8823.138672
653.687378	8869.568359
653.634216	8815.800781
653.581177	8868.222656
653.528015	8890.583008
653.474915	8722.700195
653.421875	8753.085938
653.368713	8759.439453
653.315613	8745.777344
653.262512	8762.134766
653.209412	8642.446289
653.156311	8808.829102
653.103149	8771.167969
653.050049	8947.460938
652.996948	8849.815430
652.943848	8806.170898
652.890686	8762.542969
652.837585	8812.833008
652.784485	8952.993164
652.731323	8949.303711
652.678223	8911.669922
652.625061	8913.978516
652.571960	8972.174805
652.518799	8828.787109
652.465698	8749.301758
652.412537	8875.321289
652.359436	8604.381836
652.306274	8818.123047
652.253174	8886.237305
652.200012	9065.956055
652.146912	8705.498047
652.093750	8952.931641
652.040588	8682.282227
651.987427	8851.942383
651.934326	8866.199219
651.881165	8782.885742
651.828003	8866.826172
651.774902	9082.099609
651.721680	8797.800781
651.668579	8959.285156
651.615417	8842.212891
651.562256	8892.250000
651.509094	8705.636719
651.455933	8992.266602
651.402832	8883.225586
651.349670	8849.746094
651.296448	8901.719727
651.243286	8896.060547
651.190125	8892.389648
651.136963	8852.974609
651.083801	8601.126953
651.030640	8851.606445
650.977478	9006.724609
650.924316	8887.941406
650.871155	8711.666992
650.817932	8922.262695
650.764771	8912.638672
650.711609	8926.813477
650.658447	8814.102539
650.605225	9081.999023
650.552063	8911.831055
650.498901	8937.880859
650.445740	8706.393555
650.392517	8976.085938
650.339355	8948.640625
650.286133	8887.548828
650.232971	8957.125000
650.179749	9018.757812
650.126587	9026.941406
650.073364	9017.316406
650.020203	8890.994141
649.966980	8918.972656
649.913757	9116.980469
649.860596	8980.825195
649.807373	8931.686523
649.754211	8890.469727
649.700989	8946.079102
649.647827	9068.829102
649.594543	9045.383789
649.541382	9063.413086
649.488159	9099.204102
649.434937	9028.392578
649.381714	8819.463867
649.328552	8857.251953
649.275330	9313.243164
649.222107	9013.650391
649.168884	9023.771484
649.115662	9089.092773
649.062439	8961.208008
649.009216	9103.378906
648.955994	9150.912109
648.902771	9080.220703
648.849548	9232.135742
648.796326	9194.933594
648.743103	9145.931641
648.689819	9031.983398
648.636658	9055.855469
648.583374	8936.062500
648.530151	9076.024414
648.476929	9048.727539
648.423706	9115.843750
648.370483	9033.490234
648.317200	9065.196289
648.263977	9014.332031
648.210693	9065.680664
648.157532	9012.871094
648.104248	9172.247070
648.051025	9048.727539
647.997742	9160.904297
647.944519	9070.810547
647.891296	8974.861328
647.838013	8986.893555
647.784729	9053.863281
647.731506	9183.587891
647.678284	9217.148438
647.625000	9093.804688
647.571716	9027.370117
647.518433	9119.751953
647.465210	9031.775391
647.411926	9061.412109
647.358704	9085.158203
647.305420	9177.457031
647.252197	9150.250000
647.198853	9166.131836
647.145630	9138.935547
647.092346	9078.474609
647.039124	9100.230469
646.985779	9133.718750
646.932556	9188.711914
646.879211	9175.227539
646.825989	9095.258789
646.772705	9156.091797
646.719421	9212.993164
646.666138	9322.640625
646.612854	9096.148438
646.559570	9176.470703
646.506287	9186.443359
646.453003	9182.740234
646.399719	9198.564453
646.346436	9151.911133
646.293091	9009.635742
646.239868	9183.550781
646.186523	9183.751953
646.133240	9238.572266
646.079956	9351.881836
646.026672	9303.299805
645.973328	9106.567383
645.920044	9171.104492
645.866760	9245.362305
645.813477	9344.920898
645.760132	9195.082031
645.706848	9171.904297
645.653564	9325.944336
645.600220	9259.916016
645.546875	9180.284180
645.493591	9285.578125
645.440308	9032.788086
645.386963	9260.635742
645.333618	9249.143555
645.280334	9332.948242
645.227051	9333.112305
645.173706	9309.947266
645.120422	9329.551758
645.067078	9374.410156
645.013733	9298.790039
644.960449	9403.855469
644.907104	9207.843750
644.853760	9289.583984
644.800415	9330.521484
644.747131	9429.675781
644.693787	9235.747070
644.640442	9519.210938
644.587097	9445.615234
644.533752	9257.612305
644.480408	9544.786133
644.427063	9300.609375
644.373779	9362.801758
644.320435	9595.523438
644.267090	9310.782227
644.213745	9496.927734
644.160400	9481.554688
644.107056	9466.186523
644.053650	9445.015625
644.000305	9398.685547
643.947021	9524.632812
643.893616	9304.142578
643.840271	9443.602539
643.786926	9410.847656
643.733582	9383.906250
643.680176	9378.245117
643.626831	9415.118164
643.573486	9508.031250
643.520142	9517.808594
643.466736	9347.888672
643.413391	9404.055664
643.360046	9394.531250
643.306702	9454.529297
643.253296	9468.166992
643.199890	9477.937500
643.146545	9617.011719
643.093201	9474.312500
643.039795	9385.684570
642.986450	9468.758789
642.933044	9397.521484
642.879700	9532.619141
642.826294	9578.989258
642.772949	9397.909180
642.719543	9517.512695
642.666138	9407.798828
642.612793	9515.795898
642.559387	9540.936523
642.506042	9575.695312
642.452576	9566.161133
642.399231	9498.886719
642.345825	9562.499023
642.292419	9397.122070
642.239075	9579.997070
642.185669	9626.246094
642.132263	9524.408203
642.078857	9474.519531
642.025452	9626.482422
641.972046	9467.045898
641.918640	9490.211914
641.865234	9709.321289
641.811829	9501.941406
641.758423	9638.387695
641.705017	9607.740234
641.651611	9667.328125
641.598206	9653.958984
641.544800	9429.515625
641.491394	9654.095703
641.437988	9634.981445
641.384521	9633.134766
641.331116	9516.241211
641.277710	9518.250977
641.224304	9618.010742
641.170898	9671.740234
641.117493	9618.154297
641.064026	9576.082031
641.010620	9597.228516
640.957214	9627.939453
640.903748	9650.981445
640.850342	9574.478516
640.796936	9687.467773
640.743469	9570.805664
640.690002	9612.968750
640.636597	9490.625977
640.583191	9657.086914
640.529724	9653.321289
640.476257	9655.291992
640.422852	9762.375977
640.369385	9664.960938
640.315979	9653.553711
640.262512	9898.101562
640.209045	9733.875000
640.155640	9712.912109
640.102173	9804.587891
640.048706	9779.801758
639.995300	9795.097656
639.941833	9592.887695
639.888367	9816.132812
639.834900	9610.180664
639.781494	9694.140625
639.727966	9831.447266
639.674561	9659.918945
639.621094	9648.534180
639.567627	9726.704102
639.514160	9580.057617
639.460693	9818.196289
639.407227	9900.094727
639.353760	9955.307617
639.300293	9690.711914
639.246826	9829.680664
639.193359	9706.013672
639.139893	9831.608398
639.086426	9793.579102
639.032959	9797.401367
638.979492	9915.298828
638.926025	9943.807617
638.872498	9749.936523
638.819031	9903.878906
638.765564	9854.477539
638.712097	9755.708008
638.658569	9799.410156
638.605103	9863.981445
638.551636	9751.977539
638.498108	9901.941406
638.444641	9850.697266
638.391113	9803.266602
638.337646	9822.246094
638.284180	9920.873047
638.230652	9945.509766
638.177185	10099.052734
638.123657	9869.653320
638.070129	10040.207031
638.016663	10004.168945
637.963196	10091.277344
637.909668	9913.192383
637.856140	10043.837891
637.802673	10272.881836
637.749146	10104.328125
637.695618	10043.712891
637.642090	10081.513672
637.588623	10081.462891
637.535156	10037.909180
637.481567	10005.717773
637.428101	9960.302734
637.374573	10018.875000
637.321045	10117.114258
637.267517	10175.631836
637.214050	10241.683594
637.160522	10052.708984
637.106995	10028.109375
637.053406	10096.038086
636.999939	10192.256836
636.946411	9975.124023
636.892883	9916.587891
636.839355	10107.120117
636.785828	10112.716797
636.732300	10067.388672
636.678711	10044.705078
636.625183	10161.539062
636.571655	10238.744141
636.518127	10070.930664
636.464600	10215.952148
636.411011	10001.111328
636.357544	10136.672852
636.304016	10091.406250
636.250427	10319.149414
636.196899	10125.158203
636.143372	10132.614258
636.089783	10183.343750
636.036255	10264.153320
635.982666	10179.412109
635.929138	10158.641602
635.875610	10320.254883
635.822083	10297.584961
635.768494	10276.801758
635.714905	10128.249023
635.661377	10111.262695
635.607788	10079.255859
635.554260	10118.625000
635.500671	10272.513672
635.447083	10221.720703
635.393555	10176.577148
635.339966	10159.598633
635.286438	10127.616211
635.232849	10360.136719
635.179260	10339.379883
635.125732	10146.122070
635.072144	10382.251953
635.018555	10342.757812
634.965027	10134.618164
634.911438	10147.647461
634.857849	10276.815430
634.804260	10432.153320
634.750671	10417.028320
634.697083	10390.675781
634.643494	10255.766602
634.589905	10339.870117
634.536316	10255.541992
634.482727	10448.116211
634.429138	10472.280273
634.375610	10257.071289
634.321960	10498.142578
634.268372	10436.293945
634.214783	10245.512695
634.161194	10434.124023
634.107605	10370.454102
634.054016	10323.619141
634.000427	10373.910156
633.946777	10502.601562
633.893188	10515.502930
633.839600	10427.612305
633.786011	10500.235352
633.732361	10466.485352
633.678772	10533.475586
633.625183	10533.300781
633.571594	10397.009766
633.517944	10596.333984
633.464355	10599.873047
633.410767	10527.006836
633.357117	10642.346680
633.303467	10647.735352
633.249878	10580.487305
633.196289	10412.712891
633.142639	10647.132812
633.089050	10578.061523
633.035400	10522.042969
632.981750	10499.536133
632.928162	10618.418945
632.874512	10776.312500
632.820862	10549.218750
632.767273	10692.190430
632.713623	10703.128906
632.659973	10641.583008
632.606384	10767.728516
632.552734	10622.594727
632.499084	10741.264648
632.445496	10757.751953
632.391785	10738.955078
632.338196	10831.543945
632.284546	10690.246094
632.230896	10897.853516
632.177307	10758.453125
632.123596	10919.593750
632.069946	10672.679688
632.016357	10818.940430
631.962646	11024.464844
631.909058	11033.446289
631.855408	10655.131836
631.801697	10877.241211
631.748047	10878.834961
631.694397	10802.643555
631.640747	10911.643555
631.587097	10957.658203
631.533447	10894.450195
631.479736	10979.310547
631.426086	10853.215820
631.372437	11150.780273
631.318787	11021.000977
631.265076	10946.745117
631.211426	11042.602539
631.157776	11073.728516
631.104126	10925.582031
631.050415	10895.744141
630.996765	11017.397461
630.943115	11083.593750
630.889465	10924.478516
630.835754	11116.210938
630.782043	11149.122070
630.728394	11019.613281
630.674744	11023.006836
630.621033	11185.051758
630.567322	11166.277344
630.513672	11228.649414
630.460022	11001.531250
630.406250	10971.741211
630.352600	11299.505859
630.298889	11160.952148
630.245239	11048.244141
630.191528	11180.555664
630.137817	11189.430664
630.084106	11189.094727
630.030457	11070.943359
629.976746	11144.250000
629.923035	11287.453125
629.869324	11287.096680
629.815674	11146.942383
629.761963	11113.508789
629.708252	11085.603516
629.654541	11241.544922
629.600830	11213.624023
629.547119	11137.935547
629.493469	11207.420898
629.439758	11117.066406
629.385986	11146.123047
629.332336	11274.323242
629.278564	11259.277344
629.224854	11233.222656
629.171143	11335.637695
629.117432	11441.681641
629.063721	11189.970703
629.009949	11101.589844
628.956299	11095.759766
628.902527	11183.431641
628.848816	11274.735352
628.795105	11375.166016
628.741394	11369.284180
628.687622	11376.227539
628.633911	11278.769531
628.580200	11245.440430
628.526428	11347.606445
628.472717	11295.970703
628.419006	11423.708008
628.365295	11478.203125
628.311523	11408.276367
628.257812	11391.418945
628.204041	11396.512695
628.150269	11396.118164
628.096558	11337.227539
628.042786	11364.257812
627.989075	11277.986328
627.935303	11447.516602
627.881592	11532.958984
627.827820	11470.443359
627.774048	11223.540039
627.720337	11321.751953
627.666565	11449.127930
627.612793	11322.807617
627.559082	11347.963867
627.505310	11287.377930
627.451538	11374.537109
627.397766	11330.378906
627.344055	11293.529297
627.290283	11539.205078
627.236511	11347.432617
627.182739	11314.244141
627.128967	11377.611328
627.075195	11351.712891
627.021423	11429.614258
626.967651	11283.560547
626.913940	11385.105469
626.860107	11357.403320
626.752563	11171.055664
626.698792	11336.197266
626.645020	11268.519531
626.591248	11409.941406
626.537476	11436.793945
626.483704	11661.722656
626.429932	11337.840820
626.376099	11477.320312
626.322327	11413.323242
626.268555	11371.141602
626.214783	11276.326172
626.161011	11482.867188
626.107178	11271.916016
626.053406	11509.221680
625.999573	11309.231445
625.945862	11406.776367
625.892029	11542.364258
625.838196	11442.201172
625.784424	11459.902344
625.730652	11573.649414
625.676819	11370.253906
625.623047	11369.840820
625.569214	11590.403320
625.515381	11521.129883
625.461609	11464.557617
625.407837	11446.021484
625.354004	11590.379883
625.300232	11421.635742
625.246399	11605.742188
625.192566	11645.072266
625.138794	11521.625977
625.084961	11503.096680
625.031128	11536.999023
624.977295	11641.375000
624.923462	11371.653320
624.869690	11524.799805
624.815857	11513.510742
624.762024	11410.121094
624.708191	11389.829102
624.654419	11521.186523
624.600525	11551.416992
624.546753	11540.130859
624.492920	11420.595703
624.439087	11481.491211
624.385254	11522.525391
624.331421	11570.753906
624.277588	11664.033203
624.223755	11650.931641
624.169922	11437.803711
624.116089	11567.086914
624.062256	11552.208984
624.008423	11672.413086
623.954590	11675.525391
623.900696	11513.007812
623.846863	11625.946289
623.793030	11618.266602
623.739197	11864.284180
623.685303	11628.099609
623.631531	11514.307617
623.577637	11828.531250
623.523804	11637.435547
623.469971	11536.290039
623.416077	11737.102539
623.362244	11754.562500
623.308411	11714.530273
623.254517	11595.485352
623.200623	11794.330078
623.146790	11634.021484
623.092957	11678.407227
623.039062	11728.159180
622.985229	11790.452148
622.931396	11743.287109
622.877502	11778.646484
622.823608	11733.293945
622.769775	11876.214844
622.715881	11710.758789
622.661987	11520.277344
622.608154	11691.822266
622.554260	11709.231445
622.500366	11864.551758
622.446533	11661.650391
622.392639	11788.270508
622.338745	11796.694336
622.284851	11805.113281
622.231018	11793.845703
622.177124	11675.240234
622.123230	11644.325195
622.069336	11831.598633
622.015442	11900.791016
621.961548	11859.123047
621.907715	11819.257812
621.853821	11804.424805
621.799927	11873.565430
621.746033	11930.174805
621.692078	11758.169922
621.638184	11748.714844
621.584351	11912.423828
621.530457	11790.497070
621.476562	11907.736328
621.422668	11816.186523
621.368713	11747.862305
621.314819	11922.107422
621.260925	11659.433594
621.207031	11849.670898
621.153137	11899.026367
621.099243	11743.430664
621.045288	11746.463867
620.991394	11856.373047
620.937500	11757.866211
620.883606	11915.804688
620.829651	11778.159180
620.775757	12039.264648
620.721802	11912.324219
620.667908	11872.614258
620.614014	11884.505859
620.560059	12001.323242
620.506165	11792.693359
620.452209	11939.705078
620.398254	11857.366211
620.344360	11963.432617
620.290405	11921.986328
620.236511	12056.418945
620.182556	12016.745117
620.128662	11993.067383
620.074707	11953.420898
620.020813	11885.388672
619.966858	12019.692383
619.912903	11838.118164
619.859009	12030.917969
619.805054	12090.621094
619.751099	12027.945312
619.697144	11997.206055
619.643188	11913.302734
619.589294	11923.357422
619.535339	11926.320312
619.481384	11890.308594
619.427429	11957.037109
619.373535	11871.450195
619.319580	12093.954102
619.265625	11964.119141
619.211609	12036.087891
619.157654	12046.097656
619.103760	12165.784180
619.049805	11961.750000
618.995850	11950.545898
618.941833	11995.921875
618.887939	11967.038086
618.833923	12224.469727
618.779968	11948.175781
618.726013	12129.543945
618.672058	11987.613281
618.618103	12080.603516
618.564148	12000.532227
618.510193	11996.396484
618.456177	12066.384766
618.402222	12076.352539
618.348267	12095.135742
618.294250	11974.569336
618.240295	12030.397461
618.186340	11999.809570
618.132385	12156.086914
618.078369	12009.164062
618.024414	12116.039062
617.970459	12175.303711
617.916443	11943.916992
617.862427	12144.073242
617.808472	12034.269531
617.754517	12139.270508
617.700500	12138.628906
617.646545	11993.697266
617.592529	12031.788086
617.538513	12018.854492
617.484558	12130.784180
617.430542	12068.603516
617.376526	12147.079102
617.322571	12090.191406
617.268555	12233.645508
617.214539	12015.131836
617.160583	12283.254883
617.106567	12121.012695
617.052612	12011.508789
616.998535	11945.933594
616.944580	12027.814453
616.890564	11923.656250
616.836548	12094.982422
616.782532	12232.913086
616.728516	12086.684570
616.674500	11982.594727
616.620544	12127.475586
616.566528	12210.954102
616.512512	12077.109375
616.458496	12053.693359
616.404480	12130.128906
616.350464	12168.004883
616.296448	11990.498047
616.242371	12131.670898
616.188416	12080.259766
616.134338	12118.112305
616.080322	11827.033203
616.026306	12029.345703
615.972290	12173.866211
615.918274	12103.259766
615.864258	12095.615234
615.810181	12047.773438
615.756165	12043.635742
615.702148	12149.569336
615.648132	12176.855469
615.594055	12080.131836
615.540039	12105.672852
615.486023	12155.643555
615.431946	12086.906250
615.377930	11976.314453
615.323853	12270.538086
615.269836	12320.434570
615.215820	12265.667969
615.161743	12134.202148
615.107727	12293.922852
615.053650	12322.855469
614.999634	12097.352539
614.945557	12107.146484
614.891541	12170.936523
614.837463	12041.382812
614.783386	12338.486328
614.729370	12226.359375
614.675293	12070.761719
614.621277	12179.737305
614.567200	12140.781250
614.513123	12112.276367
614.459045	12132.478516
614.405029	12218.748047
614.350952	12150.257812
614.296875	12278.204102
614.242798	12376.555664
614.188721	12290.698242
614.134705	12152.761719
614.080627	12093.033203
614.026550	12200.022461
613.972412	12202.805664
613.918396	12209.057617
613.864319	12161.509766
613.810242	12186.852539
613.756165	12245.142578
613.702087	12487.249023
613.648010	12259.345703
613.593933	12201.430664
613.539856	12179.937500
613.485779	12042.342773
613.431641	12074.599609
613.377563	12028.889648
613.323486	12078.454102
613.269409	12315.008789
613.215332	12250.233398
613.161255	12235.678711
613.107117	12061.918945
613.053040	12206.584961
612.998962	12100.363281
612.944885	12303.766602
612.890747	12175.087891
612.836670	12148.459961
612.782593	12254.934570
612.728516	12065.855469
612.674377	12122.197266
612.620300	12178.515625
612.566162	12126.003906
612.512085	12244.461914
612.457947	12257.559570
612.403870	12113.580078
612.349731	12439.054688
612.295593	12096.674805
612.241516	12368.545898
612.187378	12224.655273
612.133301	12184.283203
612.079163	12176.682617
612.025085	12053.598633
611.970947	12237.314453
611.916870	12062.576172
611.862671	12332.347656
611.808594	12188.660156
611.754456	12449.687500
611.700317	12180.356445
611.646240	12262.268555
611.592102	12237.450195
611.537964	12250.495117
611.483826	12187.842773
611.429749	12335.041016
611.375610	12186.418945
611.321472	12232.125000
611.267334	12209.057617
611.213196	12234.117188
611.159058	12236.830078
611.104919	12291.076172
611.050781	12201.030273
610.996643	12291.320312
610.942505	12122.336914
610.888367	12190.291016
610.834167	12304.552734
610.780029	12152.823242
610.725952	12237.883789
610.671753	12081.082031
610.617615	12172.979492
610.563477	12163.690430
610.509338	12198.969727
610.455200	12247.944336
610.401062	12242.070312
610.346924	12371.528320
610.292725	12202.924805
610.238586	12214.184570
610.184387	12307.616211
610.130249	12234.977539
610.076050	12360.881836
610.021912	12134.272461
609.967773	12166.058594
609.913574	12177.308594
609.859436	12369.808594
609.805237	12268.177734
609.751099	12317.002930
609.696899	12292.323242
609.642761	12170.263672
609.588623	12119.998047
609.534424	12295.196289
609.480286	12376.407227
609.426086	12332.957031
609.371887	12361.213867
609.317749	12305.837891
609.263550	12339.205078
609.209351	12331.618164
609.155212	12313.800781
609.101013	12362.491211
609.046814	12186.123047
608.992676	12309.816406
608.938416	12397.671875
608.884277	12398.596680
608.830078	12406.334961
608.775879	12134.756836
608.721680	12178.301758
608.667542	12352.916992
608.613342	12302.784180
608.559082	12235.652344
608.504944	12391.433594
608.450745	12416.167969
608.396545	12177.278320
608.342346	12230.951172
608.288086	12294.802734
608.233948	12472.508789
608.179749	12305.168945
608.125549	12275.518555
608.071289	12273.057617
608.017151	12316.453125
607.962952	12130.598633
607.908752	12257.189453
607.854553	12163.076172
607.800354	12343.912109
607.746094	12332.953125
607.691895	12001.395508
607.637695	12183.849609
607.583435	12354.360352
607.529236	12401.044922
607.475037	12264.656250
607.420837	12157.129883
607.366577	12466.436523
607.312317	12289.459961
607.258179	12220.943359
607.203918	12350.564453
607.149719	12195.723633
607.095398	12132.343750
607.041199	12244.979492
606.987061	12354.186523
606.932800	12111.505859
606.878540	12232.532227
606.824280	12235.148438
606.770081	12329.051758
606.715881	12127.133789
606.661621	12231.158203
606.607422	12090.162109
606.553162	12486.377930
606.498901	12186.634766
606.444641	12329.397461
606.390442	12063.567383
606.336121	12299.125977
606.281921	12294.966797
606.227661	12314.428711
606.173462	12150.021484
606.119202	12322.970703
606.064880	12190.662109
606.010681	12235.414062
605.956482	12278.460938
605.902161	12252.400391
605.847961	12101.677734
605.793701	12225.576172
605.739441	12303.954102
605.685120	12306.530273
605.630920	12201.367188
605.576660	12291.482422
605.522400	12310.884766
605.468140	12400.940430
605.413818	12396.762695
605.359558	12426.221680
605.305359	12316.112305
605.251099	12195.960938
605.196777	12272.500000
605.142517	12271.709961
605.088318	12390.202148
605.033997	12369.231445
604.979675	12371.779297
604.925415	12263.510742
604.871216	12521.235352
604.816895	12327.383789
604.762573	12329.935547
604.708313	12387.847656
604.654053	12256.199219
604.599792	12213.482422
604.545532	12400.483398
604.491211	12530.414062
604.436951	12259.734375
604.382690	12217.048828
604.328369	12328.506836
604.274109	12332.722656
604.219788	12407.269531
604.165527	12336.123047
604.111206	12223.156250
604.056885	12444.956055
604.002625	12383.882812
603.948303	12404.806641
603.893982	12345.437500
603.839722	12242.612305
603.785400	12238.471680
603.731140	12393.132812
603.676819	12276.988281
603.622559	12354.715820
603.568237	12280.388672
603.513916	12212.772461
603.459595	12363.938477
603.405273	12085.966797
603.351013	12076.850586
603.296692	12444.907227
603.242432	12258.854492
603.188049	12229.689453
603.133728	12280.592773
603.079468	12413.184570
603.025146	12407.344727
602.970825	12268.156250
602.916504	12623.983398
602.862183	12353.177734
602.807861	12182.430664
602.753540	12309.881836
602.699219	12305.730469
602.644897	12206.683594
602.590576	12237.507812
602.536255	12298.274414
602.481934	12300.781250
602.427551	12173.533203
602.373291	12463.791016
602.318909	12201.870117
602.264587	12347.367188
602.210266	12223.533203
602.155945	12347.361328
602.101624	12432.924805
602.047241	12554.998047
601.992920	12324.927734
601.938599	12647.889648
601.884277	12555.684570
601.829895	12241.101562
601.775574	12309.983398
601.721191	12360.585938
601.666870	12500.743164
601.612549	12499.873047
601.558167	12447.600586
601.503845	12484.869141
601.449463	12485.658203
601.395081	12347.247070
601.340759	12321.553711
601.286377	12327.342773
601.232117	12470.585938
601.177734	12476.340820
601.123352	12488.714844
601.068970	12511.012695
601.014648	12442.289062
600.960266	12529.110352
600.905884	12601.007812
600.851562	12616.647461
600.797241	12359.462891
600.742798	12451.186523
600.688477	12304.874023
600.634094	12459.362305
600.579773	12669.959961
600.525391	12484.046875
600.471008	12633.449219
600.416626	12533.474609
600.362305	12606.870117
600.307861	12586.160156
600.253479	12558.858398
600.199158	12569.510742
600.144775	12601.600586
600.090393	12562.766602
600.035950	12551.975586
599.981628	12699.436523
599.927246	12593.032227
599.872864	12559.171875
599.818481	12676.885742
599.764099	12466.782227
599.709717	12541.651367
599.655273	12525.935547
599.600891	12531.625000
599.546509	12649.222656
599.492065	12498.568359
599.437683	12563.481445
599.383301	12467.180664
599.328918	12461.362305
599.274597	12555.833984
599.220154	12564.791016
599.165710	12642.768555
599.111328	12622.127930
599.056946	12534.142578
599.002563	12590.724609
598.948181	12471.580078
598.893738	12441.138672
598.839294	12538.738281
598.784973	12465.625000
598.730530	12594.352539
598.676086	12491.729492
598.621704	12510.512695
598.567322	12355.474609
598.512878	12628.385742
598.458435	12497.971680
598.404053	12515.096680
598.349609	12404.417969
598.295227	12506.734375
598.240784	12731.838867
598.186401	12717.789062
598.131958	12363.231445
598.077515	12409.820312
598.023132	12624.940430
597.968689	12606.012695
597.914246	12665.607422
597.859863	12728.448242
597.805420	12542.730469
597.750977	12587.586914
597.696533	12539.262695
597.642090	12520.371094
597.587708	12534.161133
597.533264	12516.910156
597.478821	12666.240234
597.424377	12513.449219
597.369934	12406.427734
597.315552	12764.594727
597.261047	12551.500000
597.206665	12560.365234
597.152161	12699.712891
597.097778	12674.296875
597.043335	12624.433594
596.988892	12607.192383
596.934387	12710.560547
596.879944	12761.743164
596.825500	12671.171875
596.771118	12735.371094
596.716614	12923.304688
596.662170	12920.671875
596.607727	12921.294922
596.553223	12799.858398
596.498840	12697.996094
596.444336	12849.953125
596.389893	12892.875000
596.335449	12810.567383
596.281006	12986.792969
596.226562	12845.982422
596.172058	12892.117188
596.117615	12983.726562
596.063171	13078.546875
596.008667	12932.957031
595.954224	12828.019531
595.899719	12885.471680
595.845276	12996.463867
595.790771	13061.970703
595.736328	12802.955078
595.681885	12758.166992
595.627380	12920.989258
595.572876	12911.867188
595.518433	12896.263672
595.463928	12994.122070
595.409485	12855.349609
595.354980	13003.400391
595.300537	12937.573242
595.245972	12810.230469
595.191528	12933.910156
595.137085	13175.713867
595.082581	12949.669922
595.028076	13068.388672
594.973572	13185.440430
594.919128	12935.268555
594.864563	12955.266602
594.810120	12978.490234
594.755615	13174.671875
594.701172	13047.533203
594.646667	13127.276367
594.592102	13021.200195
594.537659	12941.009766
594.483154	13106.311523
594.428650	13013.218750
594.374146	12963.747070
594.319641	13001.444336
594.265137	12990.718750
594.210632	13080.016602
594.156128	13027.342773
594.101624	12834.396484
594.047119	12960.750000
593.992615	12904.907227
593.938110	12990.904297
593.883606	13043.029297
593.829102	12977.536133
593.774597	12889.519531
593.720032	13117.149414
593.665527	12988.891602
593.611023	12991.062500
593.556519	12954.609375
593.502014	13140.204102
593.447449	12851.182617
593.392944	13056.020508
593.338440	13162.688477
593.283936	13021.738281
593.229370	13059.254883
593.174866	13141.750000
593.120361	13127.812500
593.065796	13200.621094
593.011292	13151.343750
592.956726	13166.312500
592.902222	13001.478516
592.847717	13262.033203
592.793152	13156.618164
592.738586	13237.348633
592.684082	13266.715820
592.629578	13145.326172
592.575012	13203.559570
592.520447	13159.174805
592.465942	13231.803711
592.411377	13233.899414
592.356812	13277.645508
592.302246	13428.686523
592.247742	13374.689453
592.193176	13411.973633
592.138672	13263.557617
592.084106	13433.679688
592.029541	13206.916016
591.974976	13431.370117
591.920471	13303.861328
591.865906	13281.943359
591.811340	13471.068359
591.756775	13410.760742
591.702209	13331.300781
591.647644	13465.972656
591.593140	13333.817383
591.538574	13486.000000
591.483948	13527.942383
591.429443	13218.646484
591.374878	13546.331055
591.320312	13465.355469
591.265747	13349.312500
591.211182	13522.037109
591.156616	13479.390625
591.102051	13567.507812
591.047485	13395.740234
590.992859	13369.081055
590.938293	13350.400391
590.883728	13416.164062
590.829224	13512.165039
590.774597	13474.352539
590.720093	13638.764648
590.665466	13443.345703
590.610901	13564.723633
590.556274	13464.871094
590.501709	13605.284180
590.447144	13487.966797
590.392578	13594.919922
590.337952	13379.077148
590.283386	13587.740234
590.228821	13330.666016
590.174194	13429.616211
590.119629	13682.619141
590.065002	13389.150391
590.010437	13562.658203
589.955811	13532.878906
589.901245	13436.444336
589.846680	13609.833984
589.792053	13613.379883
589.737488	13548.711914
589.682861	13347.675781
589.628296	13565.335938
589.573669	13459.497070
589.519043	13616.811523
589.464478	13661.549805
589.409851	13641.308594
589.355225	13554.546875
589.300598	13570.759766
589.246033	13764.304688
589.191467	13527.177734
589.136780	13725.398438
589.082214	13643.451172
589.027588	13639.058594
588.973022	13663.138672
588.918396	13815.303711
588.863708	13915.228516
588.809143	13736.895508
588.754517	13757.771484
588.699890	13816.560547
588.645264	13875.325195
588.590637	13964.074219
588.536072	13856.971680
588.481384	13772.016602
588.426819	13797.589844
588.372192	13859.450195
588.317566	13807.679688
588.262939	13984.668945
588.208252	13961.281250
588.153687	14125.548828
588.098999	13878.271484
588.044434	13924.271484
587.989807	13943.460938
587.935120	13909.073242
587.880493	13884.150391
587.825867	14089.173828
587.771240	14199.635742
587.716614	14040.853516
587.661926	14162.296875
587.607300	13984.702148
587.552673	14115.544922
587.498047	14071.733398
587.443359	14156.895508
587.388733	14330.072266
587.334106	14327.112305
587.279419	14116.694336
587.224792	14091.779297
587.170166	14186.272461
587.115479	14210.042969
587.060852	14354.722656
587.006165	14266.974609
586.951538	14408.440430
586.896912	14319.146484
586.842224	14396.209961
586.787537	14267.735352
586.732910	14324.385742
586.678284	14222.634766
586.623535	14218.126953
586.568909	14255.941406
586.514282	14362.692383
586.459595	14362.856445
586.404907	14424.112305
586.350281	14281.741211
586.295593	14360.210938
586.240906	14324.365234
586.186279	14374.618164
586.131592	14237.067383
586.076904	14323.299805
586.022217	14515.862305
585.967590	14290.787109
585.912903	14250.304688
585.858215	14439.633789
585.803528	14344.432617
585.748901	14377.403320
585.694214	14513.468750
585.639465	14201.199219
585.584839	14412.201172
585.530090	14353.010742
585.475464	14529.550781
585.420776	14515.617188
585.366089	14659.282227
585.311401	14628.165039
585.256714	14374.026367
585.202026	14449.016602
585.147339	14522.416016
585.092651	14481.998047
585.037964	14616.135742
584.983276	14454.184570
584.928528	14449.630859
584.873901	14526.064453
584.819153	14616.479492
584.764465	14555.849609
584.709778	14608.864258
584.655090	14761.448242
584.600342	14772.389648
584.545715	14671.331055
584.490967	14850.243164
584.436279	14763.202148
584.381531	14747.704102
584.326782	14753.969727
584.272095	14662.338867
584.217407	15004.184570
584.162720	15027.476562
584.108032	14946.713867
584.053223	14806.984375
583.998535	15075.557617
583.943848	14839.637695
583.889160	15018.096680
583.834412	14988.607422
583.779663	15014.964844
583.724976	15038.208008
583.670288	15165.313477
583.615540	15188.514648
583.560852	15301.586914
583.506104	15279.816406
583.451355	15160.464844
583.396667	15237.849609
583.341919	15397.266602
583.287231	15302.730469
583.232483	15325.863281
583.177734	15451.116211
583.122986	15266.893555
583.068237	15228.144531
583.013489	15248.176758
582.958801	15317.676758
582.904053	15328.405273
582.849304	15404.039062
582.794556	15317.396484
582.739868	15496.505859
582.685120	15550.431641
582.630371	15463.809570
582.575623	15638.142578
582.520874	15681.197266
582.466125	15523.610352
582.411377	15443.234375
582.356567	15620.506836
582.301880	15450.689453
582.247131	15536.909180
582.192383	15734.090820
582.137634	15649.125977
582.082886	15638.164062
582.028137	15747.379883
581.973389	15745.642578
581.918640	15623.781250
581.863892	15782.199219
581.809143	15797.386719
581.754333	15923.380859
581.699585	15684.633789
581.644836	15979.825195
581.590027	16051.865234
581.535278	15905.505859
581.480530	15902.193359
581.425781	15934.235352
581.370972	15855.610352
581.316223	15780.089844
581.261414	15884.335938
581.206665	16034.614258
581.151917	15913.034180
581.097168	15886.688477
581.042358	15805.095703
580.987549	15952.192383
580.932800	15921.250000
580.877991	15784.475586
580.823242	16000.495117
580.768494	16092.224609
580.713684	15898.776367
580.658936	16042.598633
580.604126	16037.719727
580.549377	16204.431641
580.494568	16054.004883
580.439758	16044.530273
580.385010	15912.571289
580.330200	16016.404297
580.275452	16107.950195
580.220642	16147.431641
580.165833	16079.809570
580.111084	15958.682617
580.056274	16073.097656
580.001465	16034.578125
579.946655	16110.713867
579.891907	16098.180664
579.837036	16232.330078
579.782288	16398.500000
579.727478	16214.859375
579.672668	16248.119141
579.617859	16085.957031
579.563110	16462.644531
579.508240	16184.529297
579.453491	16266.584961
579.398682	16557.576172
579.343872	16186.585938
579.289062	16344.821289
579.234192	16266.710938
579.179443	16313.604492
579.124573	16390.953125
579.069763	16523.111328
579.014954	16254.635742
578.960144	16245.145508
578.905396	16269.153320
578.850525	16093.747070
578.795776	16263.871094
578.740906	16331.980469
578.686096	16392.455078
578.631226	16372.295898
578.576416	16417.529297
578.521606	16079.639648
578.466797	16146.191406
578.411987	16186.880859
578.357117	16192.609375
578.302307	16266.687500
578.247498	16360.476562
578.192627	16190.035156
578.137817	16235.221680
578.083008	16195.398438
578.028137	16337.675781
577.973328	16296.328125
577.918457	16235.278320
577.863647	16316.798828
577.808838	16367.960938
577.753967	16275.100586
577.699097	16318.670898
577.644287	16460.707031
577.589417	16213.368164
577.534607	16437.150391
577.479797	16350.423828
577.424927	16398.468750
577.370056	16395.033203
577.315247	16273.561523
577.260376	16436.574219
577.205505	16147.242188
577.150696	16410.021484
577.095825	16249.334961
577.041016	16354.767578
576.986145	16334.712891
576.931274	16228.536133
576.876404	16383.757812
576.821533	16313.863281
576.766663	16456.919922
576.711853	16405.154297
576.656982	16659.828125
576.602112	16520.509766
576.547241	16329.949219
576.492371	16531.677734
576.437500	16285.390625
576.382629	16535.294922
576.327820	16488.103516
576.272949	16475.599609
576.218079	16654.476562
576.163208	16586.197266
576.108276	16698.697266
576.053467	16734.345703
575.998596	16605.861328
575.943665	16630.974609
575.888794	16648.550781
575.833984	16601.417969
575.779053	16415.898438
575.724182	16484.644531
575.669312	16723.285156
575.614441	16572.433594
575.559570	16731.289062
575.504700	16700.720703
575.449768	16527.429688
575.394897	16483.396484
575.339966	16708.212891
575.285095	16677.671875
575.230225	16678.669922
575.175354	16682.666016
575.120422	16703.167969
575.065552	16678.650391
575.010681	16415.646484
574.955750	16560.660156
574.900879	16614.150391
574.846008	16651.128906
574.791077	16680.595703
574.736206	16599.169922
574.681274	16687.058594
574.626404	16692.533203
574.571533	16597.675781
574.516602	16511.839844
574.461670	16518.841797
574.406738	16611.138672
574.351868	16673.474609
574.296997	16505.417969
574.242126	16557.277344
574.187195	16691.351562
574.132263	16657.937500
574.077332	16537.849609
574.022461	16689.771484
573.967529	16393.435547
573.912598	16316.791992
573.857666	16461.195312
573.802795	16474.150391
573.747803	16291.551758
573.692932	16386.617188
573.638062	16299.605469
573.583069	16618.392578
573.528137	16567.162109
573.473206	16310.174805
573.418335	16430.474609
573.363403	16260.072266
573.308472	16387.781250
573.253601	16426.041016
573.198669	16418.107422
573.143738	16477.193359
573.088806	16411.181641
573.033813	16209.731445
572.978943	16346.212891
572.924011	16229.675781
572.869080	16468.744141
572.814148	16474.193359
572.759155	16362.160156
572.704224	16560.904297
572.649292	16240.796875
572.594360	16235.881836
572.539429	16499.900391
572.484497	16447.394531
572.429565	16418.671875
572.374573	16510.236328
572.319641	16292.973633
572.264771	16497.326172
572.209717	16631.845703
572.154785	16644.652344
572.099915	16452.755859
572.044922	16590.164062
571.989990	16368.705078
571.934998	16261.480469
571.880066	16435.888672
571.825073	16405.744141
571.770142	16224.505859
571.715210	16496.560547
571.660217	16276.877930
571.605286	16393.355469
571.550354	16290.716797
571.495361	16519.609375
571.440430	16245.359375
571.385437	16256.715820
571.330505	16353.842773
571.275513	16214.351562
571.220520	16074.918945
571.165527	16234.094727
571.110657	16369.560547
571.055664	16335.072266
571.000732	16176.525391
570.945679	16489.121094
570.890747	16306.984375
570.835754	16142.637695
570.780762	16037.390625
570.725830	16180.067383
570.670837	16157.463867
570.615906	15909.217773
570.560913	16085.742188
570.505920	15825.819336
570.450928	15896.163086
570.395935	15761.645508
570.341003	15783.351562
570.285950	15840.400391
570.231018	15817.898438
570.176025	15782.155273
570.121033	15861.245117
570.066040	15825.504883
570.011047	15888.364258
569.956055	16015.924805
569.901062	15930.165039
569.846130	15813.560547
569.791077	15802.856445
569.736084	15870.058594
569.681091	16250.245117
569.626099	15676.735352
569.571106	15739.511719
569.516113	15749.390625
569.461060	15763.668945
569.406128	15757.388672
569.351074	15837.703125
569.296143	15827.005859
569.241150	15817.779297
569.186096	15749.884766
569.131104	15683.485352
569.076050	15772.522461
569.021118	15883.506836
568.966064	15924.099609
568.911072	15829.876953
568.856018	15634.617188
568.801025	15524.383789
568.746033	15600.157227
568.690979	15516.326172
568.635986	15559.867188
568.580994	15495.102539
568.526001	15566.423828
568.470947	15489.981445
568.415894	15356.538086
568.360901	15568.200195
568.305847	15538.579102
568.250854	15413.976562
568.195801	15400.471680
568.140808	15500.916992
568.085815	15421.674805
568.030762	15424.236328
567.975708	15372.780273
567.920715	15149.113281
567.865662	15240.745117
567.810608	15272.518555
567.755615	15149.660156
567.700562	15013.727539
567.645569	14911.386719
567.590515	15087.514648
567.535522	15014.348633
567.480469	14891.670898
567.425415	15063.317383
567.370361	14950.875000
567.315369	14723.441406
567.260315	14902.291016
567.205261	14731.728516
567.150208	14881.393555
567.095154	14785.109375
567.040100	14764.504883
566.985107	14570.844727
566.929993	14756.763672
566.875000	14772.518555
566.819946	14542.642578
566.764893	14583.136719
566.709839	14658.480469
566.654785	14630.665039
566.599670	14630.452148
566.544678	14688.311523
566.489624	14891.298828
566.434509	14494.842773
566.379517	14586.063477
566.324463	14584.404297
566.269409	14484.125000
566.214355	14602.835938
566.159241	14502.593750
566.104248	14298.039062
566.049133	14523.941406
565.994080	14304.979492
565.939026	14323.655273
565.883911	14461.068359
565.828857	14443.504883
565.773804	14352.125000
565.718750	14201.447266
565.663635	14131.859375
565.608582	14159.222656
565.553528	14319.629883
565.498413	14121.367188
565.443420	14421.942383
565.388306	14116.784180
565.333191	14011.171875
565.278137	14113.646484
565.223022	14032.633789
565.167969	13934.324219
565.112854	13938.567383
565.057800	13870.632812
565.002747	13939.830078
564.947632	13756.491211
564.892578	13809.812500
564.837524	13545.810547
564.782410	13669.808594
564.727295	13659.679688
564.672241	13763.419922
564.617126	13678.338867
564.562012	13503.967773
564.506958	13460.749023
564.451843	13480.913086
564.396729	13453.553711
564.341675	13466.511719
564.286560	13331.226562
564.231445	13260.748047
564.176392	13280.928711
564.121277	13226.310547
564.066162	13236.422852
564.011047	13074.011719
563.955994	13061.152344
563.900879	13013.809570
563.845703	12985.164062
563.790649	13019.731445
563.735535	12992.531250
563.680420	12963.905273
563.625305	12912.323242
563.570251	12786.131836
563.515076	12767.611328
563.460022	12687.410156
563.404907	12832.422852
563.349792	12887.033203
563.294617	12854.166016
563.239563	12838.512695
563.184387	12797.070312
563.129333	12628.131836
563.074219	12487.913086
563.019043	12692.894531
562.963928	12561.311523
562.908813	12286.632812
562.853699	12492.955078
562.798584	12434.471680
562.743408	12593.462891
562.688293	12459.176758
562.633240	12413.606445
562.578064	12346.610352
562.522949	12588.382812
562.467834	12395.619141
562.412659	12347.240234
562.357544	12271.742188
562.302368	12286.247070
562.247253	12323.589844
562.192139	12258.135742
562.137024	12205.552734
562.081909	12289.974609
562.026733	12248.819336
561.971558	12112.118164
561.916443	11951.233398
561.861328	12055.594727
561.806152	12003.118164
561.751038	11994.840820
561.695862	11952.371094
561.640747	11981.143555
561.585571	11942.965820
561.530457	11776.658203
561.475281	11581.950195
561.420105	11736.018555
561.364990	11705.039062
561.309814	11824.870117
561.254700	11537.865234
561.199524	11465.707031
561.144348	11402.109375
561.089233	11338.539062
561.034058	11265.046875
560.978882	11514.105469
560.923767	11339.750977
560.868591	11382.758789
560.813416	11229.804688
560.758240	11241.585938
560.703125	11195.170898
560.647949	11248.102539
560.592773	10953.440430
560.537598	10932.645508
560.482483	11073.515625
560.427307	10984.651367
560.372131	10980.870117
560.316895	11121.637695
560.261780	10942.140625
560.206604	10850.544922
560.151428	10931.766602
560.096252	11055.429688
560.041077	10876.098633
559.985901	10776.101562
559.930725	10785.101562
