#Wave		#Intensity
900.309937	94.709656
900.267273	61.561275
900.224670	66.286110
900.182007	94.679237
900.139404	137.262848
900.096802	118.311043
900.054199	94.633629
900.011536	85.156593
899.968872	231.777939
899.926270	108.776260
899.883545	99.301506
899.840942	52.006721
899.798340	70.906868
899.755615	56.716385
899.713013	99.237740
899.670349	61.423023
899.627625	66.137245
899.584961	103.913277
899.542358	89.728874
899.499695	113.323532
899.456970	108.584282
899.414307	80.245064
899.371643	94.390800
899.328979	84.938080
899.286255	99.078514
899.243591	66.041740
899.200867	66.031136
899.158203	56.589031
899.115540	56.579945
899.072815	65.999336
899.030151	113.123558
898.987427	84.829048
898.944763	61.255589
898.902039	94.224236
898.859253	65.946381
898.816589	117.742485
898.773865	89.469925
898.731140	80.039185
898.688416	80.026337
898.645691	70.600136
898.603027	75.294724
898.560242	75.282639
898.517517	84.679375
898.474792	70.554817
898.432007	61.137691
898.389282	98.745033
898.346558	84.625015
898.303772	89.312065
898.261047	51.698685
898.218262	75.186020
898.175598	89.269066
898.132812	98.649971
898.090027	79.846680
898.047241	84.529976
898.004517	136.165329
897.961731	70.419037
897.919006	28.163094
897.876160	122.020485
897.833374	61.000450
897.790588	107.906555
897.747864	75.053383
897.705017	65.661171
897.662292	70.339958
897.619507	84.394409
897.576660	135.946945
897.533875	84.367317
897.491089	84.353783
897.448303	121.824791
897.405457	74.957069
897.362671	51.524715
897.319885	112.399521
897.277039	88.968674
897.234192	51.499916
897.191406	93.621185
897.148560	102.966774
897.105713	60.834240
897.062927	88.897316
897.020081	56.136662
896.977234	93.546089
896.934448	56.118649
896.891541	56.109642
896.848755	60.775692
896.805847	88.811760
896.763062	84.123955
896.720154	84.110458
896.677307	37.376427
896.634521	56.055645
896.591614	135.446075
896.548767	88.726288
896.505920	88.712051
896.463013	79.361206
896.420166	121.356491
896.377319	88.669357
896.334351	111.985428
896.291565	74.644974
896.248657	51.310188
896.205750	60.629581
896.162903	37.304527
896.119995	97.908669
896.077087	79.246681
896.034241	116.520546
895.991333	60.580963
895.948364	111.823830
895.905518	93.171577
895.862610	88.498795
895.819641	60.542095
895.776794	55.876045
895.733887	60.522671
895.690918	74.477493
895.648010	83.773735
895.605042	60.493549
895.562134	83.746857
895.519226	32.563000
895.476318	88.371101
895.433411	93.007294
895.390442	83.693138
895.347534	74.381966
895.304565	60.425652
895.261658	83.652863
895.218689	83.639442
895.175720	32.521233
895.132751	111.483490
895.089783	51.088402
895.046814	74.298485
895.003906	65.000748
894.960938	83.558983
894.917908	111.394104
894.875000	97.454208
894.831970	60.319118
894.789062	60.309444
894.746033	60.299770
894.703064	125.217896
894.660095	55.643471
894.617065	101.996674
894.574097	83.438438
894.531128	111.233406
894.488159	88.045654
894.445190	23.166193
894.402100	88.017418
894.359131	83.371544
894.316101	97.251205
894.273071	87.975075
894.230103	92.590485
894.187073	46.287819
894.144104	115.700989
894.101074	87.918648
894.058044	64.771774
894.015015	69.387199
893.971985	64.750999
893.928955	110.983910
893.885864	50.859467
893.842896	60.097004
893.799805	87.820000
893.756836	101.670006
893.713806	97.033081
893.670715	50.818699
893.627686	101.621101
893.584656	78.512802
893.541565	96.970848
893.498474	83.104546
893.455444	73.858864
893.412354	83.077896
893.369324	92.293968
893.326233	73.823334
893.283203	106.104027
893.240112	55.349747
893.197021	78.399567
893.153931	73.775993
893.110840	92.205208
893.067749	110.628510
893.024658	96.784424
892.981567	73.728691
892.938477	73.716866
892.895386	92.131310
892.852295	96.722359
892.809204	69.076324
892.766052	73.669594
892.722961	46.036118
892.679810	73.645973
892.636719	82.838440
892.593628	101.230743
892.550537	32.204620
892.507446	110.398132
892.464233	82.785324
892.421143	128.756516
892.377991	78.161072
892.334900	59.760647
892.291748	82.732246
892.248596	105.696472
892.205444	82.705719
892.162292	91.880508
892.119202	45.932888
892.076050	110.221260
892.032837	114.795403
891.989685	50.501881
891.946594	91.806885
891.903381	100.971382
891.860229	64.244209
891.817078	110.115280
891.773926	96.335426
891.730713	87.146645
891.687561	59.617096
891.644409	45.851952
891.601257	50.429062
891.557983	36.669804
891.514832	105.408783
891.471680	41.240303
891.428467	45.815212
891.385315	13.742360
891.342102	96.181099
891.298889	59.531136
891.255676	36.628674
891.212463	100.712700
891.169250	77.810974
891.126038	109.833183
891.082886	41.180840
891.039612	50.324070
890.996399	54.890186
890.953186	64.028290
890.909973	64.018021
890.866760	118.871559
890.823486	77.711250
890.780273	77.698792
890.737061	77.686340
890.693787	77.673889
890.650574	86.798080
890.607300	127.892456
890.564087	59.369122
890.520813	95.888596
890.477600	95.873222
890.434326	73.034561
890.391113	59.331066
890.347839	100.390327
890.304565	45.624653
890.261292	72.987747
890.218018	109.464066
890.174744	31.921904
890.131531	109.428986
890.088196	72.940964
890.044922	54.696953
890.001648	45.573490
889.958374	104.802223
889.915100	100.229538
889.871765	77.437683
889.828552	113.860695
889.785217	81.966560
889.741943	68.294525
889.698669	40.970146
889.655273	72.824142
889.612000	91.015587
889.568726	54.600601
889.525391	118.282341
889.482117	63.680286
889.438782	104.600845
889.395447	59.112743
889.352112	90.928108
889.308838	63.639473
889.265503	113.623703
889.222107	59.074856
889.178772	77.239357
889.135498	86.312508
889.092163	99.924774
889.048767	81.743538
889.005493	81.730438
888.962097	72.637634
888.918762	95.321617
888.875366	95.306343
888.832031	72.602715
888.788696	81.664970
888.745300	68.043236
888.701965	95.245262
888.658630	81.625717
888.615295	13.602105
888.571899	95.199478
888.528564	72.521317
888.485107	77.041550
888.441711	86.091461
888.398315	77.016861
888.355042	90.593552
888.311646	90.579033
888.268188	76.979843
888.224792	131.297516
888.181458	99.589050
888.138062	81.468895
888.094604	81.455833
888.051270	90.491982
888.007812	85.953606
887.964417	99.509285
887.921021	40.701820
887.877625	76.868896
887.834229	67.814629
887.790771	99.445518
887.747314	90.390533
887.703918	94.894852
887.660522	117.470039
887.617004	63.242962
887.573608	58.716198
887.530151	76.770416
887.486755	90.303665
887.443298	85.774734
887.399902	99.302200
887.356445	63.182186
887.312988	94.758095
887.269531	72.185074
887.226013	72.173508
887.182617	81.182190
887.139160	108.225578
887.095703	99.190880
887.052185	90.159081
887.008789	103.666328
886.965271	72.104156
886.921814	58.575237
886.878296	85.596245
886.834839	112.608597
886.791382	72.057953
886.747925	67.543510
886.704407	94.545761
886.660950	54.017494
886.617371	63.010315
886.573975	81.000282
886.530396	98.984482
886.486938	76.475754
886.443420	71.965652
886.399902	80.948387
886.356384	94.424652
886.312866	58.443989
886.269409	94.394394
886.225891	62.919518
886.182312	71.896500
886.138855	112.320282
886.095276	44.920914
886.051758	58.387833
886.008301	89.813042
885.964722	103.268456
885.921204	103.251907
885.877686	44.884941
885.834045	31.414427
885.790527	112.176407
885.747009	44.863373
885.703430	71.769897
885.659912	103.152702
885.616333	76.231087
885.572815	67.251945
885.529236	116.551369
885.485718	112.050667
885.442139	62.738323
885.398560	53.767090
885.354980	44.798729
885.311340	67.187332
885.267822	53.741253
885.224304	53.732643
885.180664	111.925079
885.137146	31.334002
885.093506	26.853413
885.049927	98.446739
885.006287	26.844810
884.962708	107.362038
884.919128	120.762947
884.875549	120.743599
884.831970	102.839180
884.788269	67.058289
884.744690	98.336403
884.701050	67.036804
884.657532	40.215641
884.613892	71.483017
884.570251	40.202755
884.526611	49.128830
884.482971	58.052044
884.439331	35.718613
884.395752	147.315674
884.352112	71.414337
884.308533	53.552174
884.264832	58.005562
884.221252	26.767509
884.177551	89.210739
884.133911	124.875031
884.090271	40.131973
884.046570	49.042332
884.002930	93.611275
883.959290	53.483589
883.915649	80.212532
883.872009	89.110756
883.828369	75.732010
883.784668	80.173988
883.741028	80.161148
883.697327	93.506355
883.653625	80.135468
883.609924	80.122635
883.566345	57.857079
883.522644	80.096970
883.478882	88.982376
883.435181	111.210152
883.391541	66.715401
883.347900	53.363773
883.304138	93.371643
883.260498	62.237793
883.216736	106.676270
883.173035	53.329590
883.129333	53.321049
883.085571	57.755215
883.041870	84.397949
882.998169	35.530285
882.954468	115.454933
882.910767	93.237129
882.867004	75.465584
882.823303	57.699734
882.779541	53.252762
882.735840	88.740387
882.692139	88.726173
882.648376	84.276360
882.604614	88.697754
882.560852	53.210125
882.517151	75.368935
882.473389	66.491356
882.429688	88.640938
882.385864	66.470055
882.342163	44.306271
882.298401	110.747940
882.254578	115.159409
882.210876	57.570480
882.167114	101.839149
882.123352	79.687439
882.079590	97.380157
882.035828	88.513237
881.992065	70.799248
881.948242	79.636398
881.904480	88.470711
881.860657	97.302200
881.816895	61.909664
881.773071	97.271034
881.729248	35.365620
881.685486	53.039932
881.641663	66.289299
881.597900	48.604362
881.554077	119.282516
881.510315	123.680573
881.466492	83.912659
881.422668	105.977959
881.378906	30.905289
881.335022	75.043678
881.291199	97.099792
881.247437	114.735924
881.203613	110.305328
881.159790	66.172600
881.115967	79.394402
881.072144	57.331215
881.028259	70.550194
880.984436	44.086811
880.940552	66.119621
880.896729	105.774452
880.852844	105.757515
880.809082	61.682003
880.765198	26.430910
880.721375	61.662243
880.677490	105.689774
880.633667	83.657669
880.589783	92.448929
880.545898	96.835747
880.502014	57.211960
880.458130	74.803658
880.414307	105.588249
880.370361	43.988056
880.326538	8.796203
880.282654	79.153145
880.238770	61.553696
880.194885	74.731804
880.151001	70.324547
880.107056	43.945805
880.063171	65.908150
880.019348	48.324902
879.975403	74.671974
879.931519	70.268250
879.887634	87.821243
879.843689	61.465027
879.799744	92.182770
879.755859	96.556961
879.711914	87.764999
879.668030	100.913582
879.624146	100.897423
879.580200	61.405983
879.536255	52.625271
879.492371	87.694740
879.448425	61.376484
879.404480	83.283318
879.360596	96.417870
879.316650	39.437355
879.272705	21.906134
879.228760	65.707878
879.184814	52.557880
879.140808	113.857170
879.096863	21.892103
879.052979	65.665787
879.008972	43.770184
878.964966	87.526344
878.921082	96.263557
878.877075	96.248138
878.833130	78.735863
878.789124	65.602715
878.745178	74.337837
878.701233	61.209587
878.657166	109.285332
878.613220	69.931412
878.569275	65.550194
878.525269	65.539696
878.481262	87.372269
878.437317	26.207481
878.393311	91.711494
878.349304	65.497719
878.305298	91.682121
878.261292	56.746510
878.217224	65.466255
878.173279	48.000896
878.129272	69.808304
878.085266	26.173922
878.041260	87.232437
877.997253	113.384003
877.953186	61.043144
877.909180	78.471474
877.865112	65.382423
877.821106	100.236992
877.777100	91.506073
877.733093	47.924076
877.689087	95.832802
877.644958	43.553387
877.600952	52.255695
877.556885	30.477606
877.512817	60.945450
877.468750	91.403534
877.424805	69.629631
877.380737	108.778877
877.336609	43.504581
877.292542	56.546898
877.248535	78.283165
877.204468	65.225525
877.160400	65.215073
877.116333	78.245560
877.072266	78.233025
877.028137	78.220497
876.984070	99.932404
876.940002	73.851250
876.895874	73.839424
876.851807	108.569992
876.807739	104.210503
876.763672	47.755497
876.719543	91.154984
876.675476	60.760254
876.631348	65.089844
876.587280	95.449821
876.543152	73.744865
876.499084	125.779915
876.454956	69.384697
876.410828	73.709435
876.366760	73.697632
876.322571	104.027054
876.278442	65.006493
876.234375	77.995300
876.190186	73.650429
876.146118	60.643578
876.101990	90.950798
876.057861	69.284752
876.013672	64.944046
875.969543	60.604736
875.925415	73.579681
875.881287	90.877983
875.837097	56.248791
875.792969	69.218193
875.748840	103.810661
875.704651	73.520775
875.660461	95.129288
875.616394	56.203758
875.572205	82.130798
875.528015	69.151703
875.483887	86.425781
875.439697	120.976715
875.395508	64.798576
875.351318	69.107407
875.307190	60.459297
875.263000	73.403099
875.218750	69.074203
875.174622	107.911163
875.130432	94.946609
875.086243	34.520512
875.042053	73.344337
874.997864	51.764179
874.953674	64.694862
874.909485	38.810699
874.865234	120.725060
874.821045	51.731022
874.776794	47.412510
874.732544	81.881218
874.688416	90.485794
874.644165	38.773415
874.599976	86.149345
874.555725	77.521996
874.511536	73.203491
874.467285	51.664772
874.423035	86.094162
874.378845	55.952244
874.334534	55.943279
874.290344	98.960716
874.246094	73.133163
874.201843	94.627762
874.157593	86.011452
874.113342	85.997681
874.069092	51.590343
874.024841	85.970131
873.980591	81.658539
873.936279	81.645462
873.892090	73.039505
873.847778	64.436295
873.803589	51.540779
873.759277	77.298790
873.714966	94.461159
873.670715	51.516018
873.626465	94.430901
873.582153	85.832527
873.537903	72.945961
873.493652	107.256287
873.449280	38.606079
873.405029	94.355293
873.360718	81.475609
873.316406	64.312546
873.272156	60.015430
873.227844	72.864204
873.183533	42.854431
873.139282	38.562809
873.094910	102.817688
873.050598	72.817528
873.006287	72.805862
872.961975	47.102131
872.917664	34.250607
872.873352	72.770882
872.828979	106.998863
872.784729	68.468300
872.740417	72.735916
872.696045	128.336945
872.651733	42.772129
872.607361	17.106110
872.563049	76.965164
872.518738	81.227997
872.474304	76.940514
872.429932	102.570915
872.385681	98.281380
872.341309	46.996609
872.296936	51.260815
872.252563	51.252602
872.208191	72.596222
872.163879	98.202682
872.119507	89.648956
872.075073	64.024712
872.030762	64.014458
871.986328	98.139771
871.941956	59.727684
871.897644	81.046013
871.853210	81.033028
871.808838	89.548477
871.764465	55.425888
871.720093	51.154163
871.675720	34.097313
871.631287	59.660736
871.586914	29.825590
871.542480	115.023132
871.498108	68.150932
871.453674	89.433777
871.409241	68.129105
871.364868	76.632957
871.320435	55.337162
871.276001	42.560226
871.231628	76.596138
871.187256	51.055908
871.142761	72.317619
871.098389	63.799442
871.053894	63.789219
871.009521	59.527065
870.965088	68.020035
870.920654	110.514847
870.876221	55.248569
870.831726	67.987350
870.787292	50.982342
870.742920	93.452652
870.698425	33.977337
870.653992	46.711353
870.609497	67.932899
870.565063	46.696388
870.520630	97.622261
870.476135	59.412724
870.431641	89.104805
870.387207	50.908875
870.342712	84.834534
870.298279	110.267220
870.253723	80.566986
870.209290	59.355633
870.164856	93.258194
870.120361	38.144966
870.075867	55.089458
870.031311	122.872177
869.986938	63.544392
869.942444	67.769829
869.897949	110.108322
869.853394	46.576828
869.808899	127.007355
869.764404	59.260601
869.719849	97.341103
869.675415	84.630875
869.630859	29.616060
869.586365	59.222630
869.541809	63.442654
869.497314	71.890152
869.452759	109.932030
869.408264	80.322067
869.363770	105.669998
869.319275	59.165718
869.274658	105.636139
869.230164	80.270599
869.185608	105.602287
869.141052	67.574638
869.096558	59.118332
869.052002	50.664738
869.007446	67.542160
868.962952	67.531334
868.918335	75.960579
868.873779	50.632271
868.829285	46.405479
868.784668	63.270058
868.740173	134.954498
868.695557	71.683090
868.651001	80.103554
868.606384	50.583611
868.561829	96.936386
868.517273	71.637154
868.472717	67.412399
868.428162	50.551197
868.383484	71.602722
868.338928	101.069992
868.294312	92.632645
868.249817	67.358398
868.205200	75.766060
868.160583	84.171021
868.115967	50.494518
868.071350	105.180054
868.026794	100.956673
867.982178	75.705368
867.937561	25.231079
867.892944	113.521660
867.848328	50.445988
867.803772	92.469490
867.759094	84.049698
867.714478	88.238037
867.669861	105.028450
867.625244	58.806507
867.580627	88.195625
867.536011	54.588543
867.491394	62.976685
867.446716	16.791092
867.402100	83.942001
867.357422	58.749985
867.312744	54.544811
867.268188	92.291817
867.223511	62.916153
867.178833	62.906067
867.134216	79.668251
867.089478	71.270691
867.044861	62.875828
867.000244	83.820999
866.955505	62.855675
866.910889	67.035309
866.866211	25.134211
866.821533	37.695274
866.776855	92.129234
866.732117	54.431278
866.687500	79.540657
866.642822	41.856792
866.598145	54.405109
866.553467	46.027714
866.508728	33.469337
866.464111	100.391914
866.419373	54.370239
866.374634	71.088142
866.329956	62.714779
866.285217	41.803154
866.240540	75.233612
866.195862	117.011307
866.151123	75.209496
866.106445	79.375076
866.061707	100.247185
866.017029	66.820747
865.972290	112.741936
865.927551	104.373947
865.882812	91.834351
865.838135	70.951530
865.793396	45.902454
865.748596	100.134758
865.703857	58.402580
865.659180	100.102661
865.614380	75.064957
865.569702	70.883316
865.524902	54.196201
865.480225	54.187515
865.435425	58.346432
865.390686	45.836273
865.345947	45.828926
865.301147	79.146370
865.256409	83.298607
865.211609	49.971153
865.166870	24.981571
865.122070	54.118061
865.077332	49.947124
865.032532	16.646372
864.987732	120.666855
864.943054	79.044922
864.898254	33.276737
864.853394	58.224953
864.808594	58.215618
864.763855	95.624611
864.719116	54.040028
864.674255	99.750214
864.629517	70.645073
864.584656	74.788673
864.539856	66.468163
864.495056	62.303913
864.450256	62.293922
864.405457	70.588463
864.360657	70.577148
864.315857	66.414902
864.270996	99.606377
864.226196	58.094402
864.181335	91.276566
864.136536	74.668854
864.091736	37.328442
864.046875	70.497971
864.002014	49.755299
863.957214	99.494637
863.912354	91.188797
863.867554	107.751297
863.822632	53.867012
863.777832	95.287895
863.732971	74.561172
863.688171	62.124352
863.643311	74.537270
863.598450	91.086494
863.553589	86.932259
863.508728	66.223480
863.463867	57.936256
863.419006	57.926968
863.374146	70.328606
863.329224	86.862587
863.284424	53.763454
863.239502	90.969719
863.194641	70.283508
863.149719	70.272240
863.104858	111.590958
863.059937	78.514374
863.015076	57.843422
862.970215	33.048084
862.925354	66.085571
862.880371	61.945286
862.835510	107.354607
862.790588	49.540337
862.745667	53.660091
862.700806	123.811119
862.655884	57.769257
862.611023	70.137131
862.566101	74.250938
862.521118	82.487808
862.476257	41.237289
862.431335	82.461357
862.386353	74.203316
862.341492	90.678398
862.296570	78.300606
862.251587	65.926773
862.206665	41.197628
862.161743	45.310120
862.116821	70.013504
862.071838	90.591179
862.026855	53.522564
861.981934	74.096283
861.937073	37.042198
861.892090	12.345419
861.847107	53.488235
861.802124	102.845497
861.757202	61.697399
861.712280	74.025002
861.667236	45.230247
861.622253	69.890083
861.577332	73.989395
861.532410	73.977524
861.487366	78.074860
861.442383	90.387970
861.397461	119.128670
861.352478	90.358978
861.307434	57.491943
861.262451	90.329994
861.217468	65.684006
861.172485	57.464283
861.127441	16.415733
861.082520	49.239300
861.037537	24.615700
860.992493	53.325462
860.947510	57.418209
860.902466	61.509640
860.857544	61.499775
860.812500	40.993271
860.767395	49.184036
860.722412	90.156265
860.677429	143.407410
860.632446	94.224037
860.587341	36.864361
860.542358	69.621513
860.497314	85.989250
860.452271	69.599174
860.407227	85.961662
860.362183	61.391335
860.317200	110.486679
860.272156	65.463081
860.227112	65.452583
860.182007	69.532211
860.137024	69.521057
860.091919	69.509903
860.046875	81.763237
860.001831	40.875057
859.956787	44.955349
859.911743	36.775749
859.866699	44.940926
859.821533	57.188366
859.776489	44.926506
859.731445	61.253586
859.686340	93.907097
859.641296	69.398460
859.596191	48.979286
859.551086	53.052380
859.506042	73.445358
859.460938	57.114998
859.415833	57.105835
859.370789	57.096672
859.325684	101.941986
859.280579	24.462151
859.235474	81.527412
859.190369	36.681450
859.145264	65.201004
859.100159	40.744087
859.055054	65.180077
859.009949	52.950317
858.964844	109.956085
858.919678	77.364090
858.874573	48.853691
858.829468	69.198288
858.784302	69.187180
858.739258	44.760994
858.694092	105.781731
858.648926	69.153877
858.603821	77.277229
858.558655	73.198257
858.513550	65.054672
858.468384	89.435822
858.423279	105.679916
858.378113	93.471077
858.333008	48.759693
858.287781	56.877178
858.242615	24.372021
858.197510	73.104324
858.152344	52.789097
858.107178	93.381104
858.062012	77.128532
858.016846	89.292389
857.971680	97.394241
857.926514	40.574421
857.881348	44.624699
857.836121	101.403496
857.791016	93.276237
857.745789	93.261269
857.700623	52.704430
857.655396	60.803043
857.610229	48.634628
857.565063	97.253639
857.519836	52.670601
857.474670	72.916817
857.429443	89.106247
857.384277	68.843773
857.339050	117.420532
857.293823	68.821678
857.248596	40.476841
857.203369	60.705513
857.158203	84.974075
857.112976	80.914703
857.067810	60.676285
857.022522	68.755417
856.977356	44.481655
856.932068	68.733345
856.886841	40.424889
856.841614	88.920471
856.796387	8.082381
856.751099	64.648674
856.705872	60.598400
856.660645	56.549427
856.615479	72.694733
856.570190	84.796906
856.524963	20.186499
856.479675	72.659729
856.434387	80.720070
856.389160	96.848526
856.343872	24.208244
856.298645	80.681190
856.253357	60.501179
856.208130	76.622520
856.162903	28.224819
856.117554	84.660858
856.072327	60.462334
856.027039	72.543152
855.981750	48.354336
855.936462	32.231049
855.891174	80.564682
855.845886	84.579330
855.800598	76.511871
855.755310	80.525879
855.710022	72.461647
855.664734	44.275009
855.619385	88.535797
855.574158	28.165958
855.528809	36.207558
855.483521	60.336243
855.438232	100.544250
855.392883	84.443611
855.347595	64.327660
855.302246	48.237995
855.256958	84.402931
855.211609	52.241043
855.166321	48.214760
855.120972	100.431282
855.075623	64.265701
855.030273	48.191532
854.984924	40.153160
854.939636	56.205399
854.894287	52.182343
854.848999	80.267632
854.803589	88.280220
854.758301	68.205574
854.712891	76.217514
854.667603	88.237686
854.622253	64.162560
854.576904	52.123703
854.531555	60.133076
854.486206	100.205696
854.440735	64.121346
854.395447	92.159630
854.350098	84.132233
854.304688	52.073490
854.259277	72.090172
854.213928	68.074226
854.168579	64.059570
854.123169	64.049278
854.077820	76.046303
854.032410	44.019733
853.987000	44.012665
853.941650	32.004066
853.896240	63.997852
853.850830	71.986015
853.805420	71.974457
853.760071	87.954643
853.714661	67.954033
853.669250	31.973232
853.623840	103.896309
853.578369	59.930550
853.532959	47.936737
853.487610	51.923122
853.442139	67.888557
853.396790	95.827271
853.351318	27.945131
853.305908	47.898243
853.260437	51.881424
853.215027	59.853565
853.169617	47.875156
853.124146	59.834332
853.078735	39.883144
853.033264	63.802780
852.987854	43.857365
852.942383	83.714241
852.896912	95.658043
852.851562	63.761784
852.806091	15.937884
852.760620	67.725121
852.715210	39.831905
852.669678	79.651016
852.624207	35.837196
852.578796	71.662872
852.533325	63.690098
852.487793	23.879948
852.442383	103.463142
852.396912	75.595535
852.351440	119.342186
852.305969	31.819469
852.260498	87.489479
852.214966	99.403885
852.169495	59.632744
852.124023	63.598038
852.078491	71.536293
852.032959	79.472000
851.987488	83.432190
851.942017	11.916968
851.896545	67.518631
851.851013	63.536736
851.805481	75.437744
851.760010	23.818617
851.714478	23.814789
851.668945	107.149323
851.623474	119.035667
851.577942	55.541050
851.532410	67.431862
851.486877	75.352913
851.441345	118.959160
851.395813	55.505348
851.350342	51.532398
851.304749	95.121437
851.259216	106.994415
851.213684	75.280266
851.168152	71.306679
851.122620	83.177757
851.077087	71.283760
851.031494	71.272301
850.985962	63.342972
850.940430	102.915779
850.894897	51.449615
850.849304	83.097557
850.803772	94.953369
850.758179	63.292068
850.712646	51.416538
850.667053	27.681377
850.621460	51.400009
850.575928	43.485321
850.530334	39.525757
850.484802	75.086861
850.439209	59.269569
850.393616	67.161377
850.348022	90.850784
850.302429	59.240986
850.256836	82.924042
850.211304	71.066322
850.165710	23.684965
850.120117	67.096611
850.074402	74.978271
850.028870	74.966217
849.983276	55.229382
849.937622	86.775070
849.892029	55.211620
849.846436	78.861061
849.800781	55.193867
849.755249	90.661057
849.709595	31.529209
849.664001	70.929314
849.618286	110.316742
849.572693	51.210251
849.527100	7.877233
849.481445	114.201515
849.435852	90.559044
849.390198	51.177315
849.344543	90.529922
849.298889	78.709007
849.253235	70.826714
849.207581	55.078587
849.161987	47.202621
849.116333	90.457146
849.070618	98.307167
849.025024	62.906467
848.979370	39.310219
848.933655	43.234283
848.888062	98.243935
848.842407	55.007751
848.796753	106.069313
848.750977	74.629364
848.705322	39.272293
848.659668	62.825565
848.613953	62.815456
848.568359	62.805355
848.522644	58.870548
848.476929	51.012932
848.431335	74.545372
848.385620	58.842140
848.339844	70.599213
848.294189	54.901661
848.248535	70.576492
848.202820	74.485428
848.157104	78.393097
848.111389	15.676097
848.065735	54.857513
848.020020	31.342108
847.974304	27.419931
847.928589	70.497055
847.882874	54.822220
847.837158	105.711555
847.791382	97.865318
847.745728	46.967793
847.699951	50.873589
847.654236	66.516296
847.608521	82.153969
847.562744	66.494896
847.517029	54.751690
847.471313	89.934731
847.425598	66.462799
847.379761	58.634209
847.334045	66.441414
847.288330	46.892273
847.242554	62.512970
847.196777	66.409340
847.151062	54.681244
847.105347	54.672443
847.059509	70.281830
847.013794	46.847012
846.968018	62.452633
846.922302	70.247902
846.876465	54.628464
846.830750	74.126701
846.784912	46.809326
846.739136	70.202690
846.693420	97.488045
846.647644	77.977882
846.601807	58.473999
846.556030	50.669308
846.510254	42.867130
846.464478	85.720459
846.418640	97.393936
846.372925	109.063652
846.327087	81.784569
846.281250	58.408146
846.235474	70.078491
846.189636	46.711475
846.143860	62.271942
846.098083	50.587807
846.052185	62.251896
846.006409	46.681404
845.960571	42.784397
845.914795	66.110703
845.868958	66.100060
845.823120	46.651352
845.777283	38.869869
845.731506	81.613579
845.685669	58.286030
845.639832	73.817085
845.593994	77.689682
845.548157	85.444893
845.502319	69.898201
845.456421	58.239124
845.410583	62.111729
845.364807	54.339012
845.318909	50.449532
845.273010	54.321514
845.227173	108.625534
845.181335	81.456032
845.135437	93.077621
845.089600	73.674583
845.043762	85.293678
844.997864	42.639969
844.951965	34.881630
844.906128	65.876915
844.860229	58.117329
844.814392	81.351158
844.768494	73.591576
844.722656	58.089256
844.676758	50.335915
844.630798	81.298767
844.584961	50.319702
844.539062	54.181721
844.493164	88.998489
844.447266	81.246407
844.401367	38.682533
844.355469	73.484970
844.309570	46.404087
844.263672	61.862152
844.217773	81.180992
844.171814	115.954170
844.125977	38.645164
844.080017	77.277878
844.034119	73.402161
843.988220	34.763844
843.942200	27.034189
843.896301	73.366692
843.850403	27.025480
843.804443	77.203217
843.758484	46.314468
843.712646	57.883762
843.666687	65.591026
843.620728	92.584183
843.574768	34.713474
843.528870	53.990040
843.482849	61.692959
843.436951	73.248589
843.390930	53.963947
843.345032	77.078934
843.299072	65.506538
843.253113	69.348686
843.207092	42.372925
843.161133	53.920490
843.115173	96.271072
843.069275	84.704895
843.023315	103.939255
842.977295	84.677597
842.931335	92.360680
842.885376	38.477413
842.839355	88.483795
842.793335	61.544022
842.747375	84.609398
842.701416	65.369453
842.655396	49.980347
842.609436	88.412521
842.563416	103.771881
842.517456	76.855675
842.471436	92.211945
842.425476	92.197083
842.379456	46.091114
842.333435	69.125526
842.287415	49.915947
842.241455	57.586040
842.195374	76.769012
842.149353	69.080971
842.103333	92.093117
842.057373	53.712326
842.011292	49.867695
841.965271	30.682865
841.919250	72.860062
841.873169	61.345947
841.827148	61.336060
841.781128	84.323486
841.735107	72.813087
841.689026	68.969704
841.643066	84.282715
841.596985	99.590790
841.550903	53.617165
841.504883	38.291801
841.458801	57.428440
841.412781	53.591236
841.366699	34.445953
841.320679	88.014359
841.274597	88.000168
841.228516	49.731209
841.182434	42.073467
841.136353	53.539417
841.090332	57.354412
841.044250	91.752266
840.998230	80.270287
840.952087	57.326672
840.906006	87.886726
840.859924	72.590370
840.813843	68.758736
840.767761	80.205589
840.721680	45.824375
840.675537	49.635067
840.629456	53.444530
840.583374	57.252762
840.537292	53.427296
840.491211	61.049919
840.445129	72.485085
840.398987	41.958282
840.352905	53.392838
840.306763	53.384228
840.260620	118.188866
840.214478	41.931221
840.168396	68.603661
840.122253	53.349796
840.076172	102.872299
840.030029	68.570473
839.983887	60.941696
839.937805	64.740112
839.891663	76.152550
839.845459	79.947281
839.799316	76.127983
839.753174	72.309921
839.707031	53.272396
839.660950	57.068363
839.614807	76.078873
839.568604	114.099899
839.522461	64.646179
839.476318	53.229443
839.430176	72.228302
839.384033	68.415771
839.337891	57.003948
839.291687	53.195103
839.245544	30.392296
839.199341	37.984241
839.153198	56.967171
839.106995	34.174786
839.060852	30.372686
839.014648	30.367786
838.968445	60.725773
838.922241	72.100220
838.876099	68.294449
838.829895	91.044571
838.783691	75.858238
838.737549	79.638298
838.691345	64.458694
838.645142	64.448288
838.598938	45.485569
838.552734	37.898525
838.506531	68.206337
838.460327	53.040810
838.414124	45.456215
838.367920	75.748131
838.321716	49.228340
838.275452	56.792763
838.229309	34.070160
838.183044	68.129318
838.136780	87.040077
838.090576	45.404884
838.044312	71.879463
837.998108	79.432899
837.951904	60.510536
837.905701	71.844666
837.859375	41.587566
837.813171	34.020699
837.766907	34.015205
837.720642	22.673143
837.674500	45.338966
837.628235	33.998737
837.581970	79.317581
837.535645	86.857605
837.489441	64.188736
837.443176	83.054367
837.396912	60.393425
837.350708	79.253571
837.304382	56.600555
837.258118	75.455223
837.211853	45.265823
837.165588	49.030060
837.119324	64.105881
837.073059	52.784554
837.026733	60.315464
836.980469	60.305725
836.934143	45.221989
836.887878	71.589920
836.841614	52.741951
836.795349	48.966759
836.749023	79.087379
836.702698	90.370979
836.656372	56.472740
836.610107	26.349689
836.563782	90.327202
836.517517	94.075645
836.471191	41.386597
836.424866	90.283447
836.378540	112.836082
836.332214	71.451309
836.285950	63.919796
836.239624	93.984520
836.193298	199.214996
836.146973	2818.624756
836.100647	19118.462891
836.054321	90.166862
836.007996	63.857876
835.961609	52.580345
835.915283	56.326984
835.868958	45.054306
835.822632	56.308788
835.776306	52.546379
835.729919	97.570366
835.683655	71.289902
835.637268	48.769424
835.590881	30.007105
835.544495	82.506203
835.498169	56.245144
835.451782	59.985126
835.405457	63.723900
835.359131	74.957184
835.312744	63.703308
835.266357	48.706425
835.219971	26.222300
835.173584	48.690685
835.127197	52.427650
835.080811	78.628769
835.034485	59.897953
834.988098	56.145260
834.941711	89.817894
834.895325	56.127113
834.848938	86.047668
834.802551	78.552567
834.756104	63.579895
834.709778	44.872673
834.663391	82.253273
834.616882	71.025436
834.570496	59.801228
834.524109	71.002480
834.477722	70.991005
834.431335	93.394119
834.384888	82.173546
834.338501	78.425705
834.292053	93.348846
834.245667	56.000256
834.199219	41.060215
834.152832	111.964302
834.106323	67.167725
834.059937	55.964054
834.013489	74.606674
833.967102	70.864883
833.920654	111.873840
833.874207	18.642626
833.827759	70.830528
833.781311	115.546913
833.734863	63.354191
833.688416	18.630573
833.641968	44.706146
833.595520	70.773285
833.549072	81.934769
833.502563	78.197815
833.456116	81.908279
833.409607	55.837521
833.363159	96.769386
833.316711	78.147255
833.270264	100.458794
833.223816	70.681793
833.177307	55.792393
833.130798	66.940048
833.084412	55.774349
833.037903	66.918396
832.991394	40.887962
832.944946	85.479187
832.898438	85.465363
832.851929	92.882111
832.805420	96.581772
832.758911	85.423904
832.712463	92.837051
832.665955	74.257629
832.619446	74.245621
832.572937	85.368652
832.526428	44.532963
832.479919	63.078159
832.433411	63.067959
832.386902	59.348476
832.340393	103.843033
832.293823	33.372719
832.247314	59.319683
832.200867	33.361923
832.154297	51.887928
832.107788	81.524986
832.061218	66.691467
832.014709	29.635859
831.968201	85.189308
831.921631	70.362389
831.875122	40.729530
831.828552	96.254227
831.781982	51.820812
831.735474	81.419525
831.688904	70.305489
831.642395	48.095974
831.595764	62.884556
831.549255	51.778900
831.502686	70.259995
831.456116	70.248627
831.409546	55.450470
831.362976	40.657097
831.316406	48.041519
831.269836	88.677689
831.223267	44.331669
831.176697	62.793034
831.130127	92.327751
831.083557	48.002659
831.036987	36.919147
830.990356	70.135025
830.943848	36.907196
830.897217	70.112328
830.850647	70.100975
830.804016	73.778557
830.757446	70.078285
830.710876	22.126404
830.664246	95.865562
830.617676	62.671181
830.571045	92.148582
830.524414	77.392281
830.477844	58.956001
830.431213	55.262306
830.384644	40.519131
830.337952	51.561455
830.291382	66.282562
830.244690	92.044212
830.198120	58.898758
830.151489	58.889225
830.104858	88.319534
830.058228	73.587692
830.011597	51.503048
829.964966	51.494709
829.918274	69.874359
829.871704	80.894051
829.825012	22.058441
829.778442	77.192047
829.731750	51.453030
829.685120	99.214775
829.638428	55.110394
829.591797	69.795197
829.545166	58.765385
829.498474	44.066898
829.451843	22.029882
829.405151	51.394733
829.358521	88.090988
829.311829	36.698631
829.265137	66.046844
829.218506	62.367470
829.171814	55.021206
829.125183	29.339891
829.078430	88.005417
829.031799	98.990059
828.985046	58.651272
828.938416	69.637100
828.891724	51.303238
828.845032	87.934158
828.798340	58.613277
828.751648	91.568413
828.704956	47.607861
828.658264	73.230995
828.611572	54.914349
828.564819	62.226181
828.518127	32.937935
828.471436	29.273420
828.424744	40.244431
828.378052	54.869877
828.331299	87.777580
828.284546	47.538486
828.237854	18.281071
828.191101	87.734917
828.144409	76.755615
828.097656	65.779869
828.050964	80.384590
828.004211	84.024811
827.957458	105.927162
827.910767	62.085171
827.864014	58.423634
827.817261	73.017708
827.770508	94.907631
827.723755	69.344337
827.677063	87.578651
827.630310	32.836670
827.583557	91.198189
827.536804	72.946732
827.489990	87.521889
827.443237	65.630775
827.396545	58.329010
827.349731	72.899445
827.302979	80.176392
827.256226	72.875809
827.209412	72.863998
827.162659	72.852188
827.115906	61.914322
827.069153	10.924285
827.022278	80.098434
826.975525	54.603718
826.928711	65.513840
826.882019	76.420418
826.835205	54.577164
826.788391	43.654652
826.741577	43.647575
826.694824	112.737953
826.648010	76.358490
826.601196	65.439522
826.554443	43.619270
826.507568	61.783947
826.460815	61.773930
826.414001	69.030258
826.367188	61.753895
826.320374	65.375877
826.273560	79.890892
826.226746	65.354675
826.179871	72.604523
826.133118	29.037100
826.086243	65.322884
826.039429	76.197670
825.992615	61.673820
825.945801	68.918381
825.898987	79.787292
825.852051	79.774353
825.805237	101.514519
825.758423	79.748474
825.711548	47.116451
825.664734	76.098846
825.617920	72.463333
825.571045	57.961266
825.524170	32.597923
825.477356	72.428078
825.430481	72.416328
825.383606	65.164116
825.336731	57.914265
825.289856	83.238251
825.243042	75.987808
825.196167	47.032440
825.149231	36.172928
825.102356	43.400471
825.055542	28.928953
825.008667	57.848518
824.961731	75.913864
824.914856	57.829746
824.867981	54.206589
824.821106	72.263725
824.774231	54.188999
824.727295	93.912354
824.680420	90.285683
824.633545	61.384304
824.586670	72.205109
824.539734	72.193390
824.492859	28.872667
824.445923	75.778450
824.398987	75.766151
824.352112	72.146530
824.305237	79.348305
824.258301	46.880020
824.211365	68.505836
824.164429	64.889725
824.117554	54.065994
824.070557	79.283920
824.023682	75.667824
823.976746	32.423801
823.929810	100.857674
823.882874	32.413277
823.835938	46.811573
823.789062	28.802444
823.742065	43.196655
823.695129	61.185326
823.648132	57.576836
823.601257	46.773586
823.554321	46.765991
823.507324	39.564796
823.460388	79.116745
823.413452	46.743214
823.366516	79.091049
823.319519	50.322498
823.272583	25.157162
823.225586	79.052528
823.178650	32.334419
823.131653	89.803246
823.084717	46.690102
823.037720	75.410225
822.990784	61.036457
822.943726	68.206139
822.896790	43.070564
822.849792	89.715767
822.802795	50.232670
822.755798	82.511696
822.708801	64.563881
822.661804	68.139694
822.614868	32.271454
822.567871	35.851345
822.520874	43.014626
822.473816	78.847336
822.426880	68.084366
822.379822	103.901360
822.332825	64.480019
822.285828	17.908207
822.238770	60.878010
822.191772	114.575287
822.144775	10.739688
822.097778	71.586281
822.050720	67.995918
822.003784	46.515965
821.956726	64.396255
821.909668	67.962776
821.862610	35.764072
821.815613	64.364868
821.768616	82.230629
821.721558	89.366600
821.674500	85.777992
821.627502	57.176033
821.580444	53.593819
821.533325	85.736176
821.486267	64.291679
821.439270	82.137131
821.392212	67.841385
821.345154	78.540413
821.298096	74.958206
821.251038	74.946022
821.203979	53.524170
821.156921	60.650867
821.109863	85.610832
821.062744	64.197685
821.015686	60.621292
820.968628	71.307571
820.921570	42.777588
820.874512	78.412834
820.827393	78.400085
820.780273	71.261215
820.733276	42.749779
820.686157	39.180923
820.639099	103.278366
820.591980	53.411160
820.544922	103.244789
820.497742	56.953377
820.450684	49.826103
820.403564	74.726997
820.356506	32.020649
820.309387	53.359070
820.262268	71.133858
820.215149	85.346748
820.168091	31.999825
820.120972	63.989243
820.073792	81.750732
820.026733	74.629837
819.979553	78.170921
819.932495	60.394978
819.885376	46.176880
819.838257	60.375332
819.791077	63.916424
819.743958	92.308701
819.696777	74.544899
819.649719	24.844259
819.602539	74.520653
819.555420	92.248657
819.508240	88.686195
819.461121	35.468708
819.413940	60.286995
819.366821	39.002884
819.319702	56.722240
819.272461	63.802135
819.225342	63.791756
819.178162	88.585243
819.131042	63.771000
819.083862	99.183189
819.036743	38.958485
818.989563	35.411041
818.942383	127.459000
818.895203	49.559322
818.848022	74.326889
818.800842	60.159592
818.753662	70.764473
818.706482	60.140015
818.659302	42.444866
818.612122	77.802917
818.564941	42.431049
818.517761	53.030178
818.470581	60.091087
818.423340	53.012917
818.376160	70.672386
818.328979	56.528706
818.281738	63.584442
818.234558	56.510303
818.187317	91.814293
818.140137	77.676369
818.092957	88.254234
818.045715	88.239868
817.998535	24.703140
817.951294	52.926682
817.904053	95.252518
817.856873	70.545929
817.809631	77.587891
817.762390	88.153702
817.715149	45.832458
817.667969	38.774998
817.620667	77.537369
817.573486	56.381630
817.526245	70.465561
817.479004	45.795155
817.431702	45.787697
817.384460	59.866470
817.337280	73.940651
817.290039	31.683691
817.242798	66.876900
817.195496	80.943062
817.148254	59.817734
817.101013	66.844223
817.053772	49.245617
817.006531	66.822449
816.959229	49.229576
816.911926	59.769035
816.864685	24.606770
816.817444	59.749561
816.770142	59.739830
816.722839	73.784241
816.675598	63.233330
816.628357	70.247810
816.581055	35.118183
816.533752	70.224922
816.486450	70.213478
816.439209	91.262650
816.391846	70.190598
816.344604	87.723953
816.297302	84.201271
816.250000	70.156296
816.202698	70.144859
816.155396	80.653450
816.108154	73.628105
816.060791	52.582932
816.013489	59.584278
815.966187	49.061409
815.918823	63.068672
815.871582	56.051907
815.824280	63.048119
815.776917	70.042046
815.729553	91.039818
815.682251	63.017292
815.634949	73.508194
815.587585	66.496574
815.540222	66.485733
815.492981	104.960358
815.445618	62.965950
815.398315	76.945839
815.350952	62.945423
815.303589	52.445965
815.256226	97.883179
815.208923	31.457321
815.161560	76.883133
815.114197	73.376480
815.066833	94.325806
815.019470	97.803406
814.972107	111.757095
814.924805	76.820480
814.877441	52.369057
814.830017	69.814026
814.782715	80.273033
814.735291	101.197319
814.687927	66.290878
814.640564	45.349522
814.593201	69.757118
814.545837	90.669464
814.498474	62.760929
814.451050	87.153740
814.403687	48.798134
814.356262	52.275185
814.308960	48.782215
814.261536	66.193634
814.214172	52.249611
814.166748	73.137520
814.119324	34.821709
814.071960	76.595268
814.024536	104.431053
813.977112	69.609344
813.929688	86.997482
813.882263	59.148636
813.834900	73.054039
813.787476	76.520317
813.740051	66.074951
813.692688	59.110043
813.645203	97.341835
813.597839	83.422241
813.550354	38.228954
813.502930	72.970642
813.455566	72.958733
813.408142	83.367805
813.360657	69.461830
813.313232	62.505447
813.265808	86.798958
813.218384	34.713917
813.170959	48.591549
813.123474	55.524136
813.076050	38.166615
813.028564	41.629509
812.981140	65.902634
812.933716	45.083916
812.886230	69.348549
812.838806	72.804085
812.791321	55.460724
812.743896	55.451672
812.696411	93.559418
812.648926	48.504372
812.601501	69.280647
812.554016	55.415470
812.506531	86.572533
812.459045	76.171394
812.411560	38.079479
812.364136	89.991341
812.316650	55.370247
812.269165	86.501884
812.221680	48.433144
812.174194	72.637856
812.126648	55.334087
812.079163	65.698502
812.031738	34.572510
811.984192	72.590416
811.936646	69.122437
811.889160	65.655594
811.841675	41.459919
811.794189	44.907574
811.746643	89.800476
811.699158	58.706108
811.651611	65.601990
811.604187	48.330414
811.556641	37.967693
811.509094	65.569847
811.461548	103.514427
811.414062	82.798012
811.366577	75.885780
811.318970	58.629433
811.271484	62.068081
811.223938	96.534576
811.176453	62.047802
811.128906	41.358444
811.081360	41.351685
811.033813	79.244446
810.986267	34.448479
810.938660	75.774269
810.891174	72.318161
810.843628	44.761070
810.796082	55.081547
810.748474	55.072544
810.700928	79.153847
810.653381	65.377274
810.605835	99.770058
810.558289	58.476334
810.510681	48.149113
810.463135	82.527840
810.415527	48.133373
810.368042	123.751297
810.320435	61.865536
810.272888	61.855423
810.225281	85.896263
810.177673	58.399914
810.130127	68.694550
810.082581	89.288315
810.034912	10.300814
809.987305	51.495647
809.939758	65.217155
809.892212	78.934174
809.844543	48.039032
809.796936	65.185173
809.749390	54.883801
809.701721	54.874828
809.654175	54.865852
809.606567	61.713993
809.558960	78.843872
809.511353	58.266376
809.463684	44.549355
809.416077	85.657822
809.368530	51.386288
809.320923	68.503845
809.273254	44.520218
809.225586	68.481438
809.178040	37.658630
809.130432	51.344280
809.082764	75.292625
809.035156	68.436646
808.987488	61.582905
808.939880	58.152119
808.892212	47.882145
808.844604	78.650658
808.796936	85.475861
808.749268	37.603226
808.701599	88.865814
808.653992	68.347130
808.606323	58.085556
808.558655	85.405960
808.511047	54.650871
808.463318	78.547775
808.415710	75.120361
808.368042	81.936073
808.320374	61.441998
808.272705	71.670601
808.225037	34.123272
808.177368	58.000069
808.129700	34.112106
808.082031	54.570435
808.034302	57.971600
807.986633	61.371647
807.939026	47.725689
807.891296	51.126297
807.843567	64.749374
807.795898	57.924171
807.748169	68.134926
807.700562	68.123772
807.652832	81.735146
807.605103	74.911621
807.557434	34.045162
807.509705	81.695015
807.462036	30.630613
807.414307	64.654045
807.366638	71.448029
807.318909	81.641525
807.271179	68.023460
807.223450	91.816643
807.175781	61.201069
807.128052	54.392044
807.080322	44.186298
807.032593	95.154907
806.984924	67.956657
806.937134	54.356422
806.889465	88.314720
806.841675	64.527115
806.793945	91.681404
806.746216	33.950516
806.698486	67.889908
806.650696	67.878784
806.602966	81.441200
806.555237	67.856552
806.507507	84.806793
806.459717	61.050892
806.411987	74.605530
806.364258	57.640285
806.316467	50.850742
806.268738	84.737358
806.220947	54.223022
806.173218	101.651512
806.125427	67.756569
806.077698	91.456383
806.029907	57.574215
805.982178	84.654091
805.934387	60.940956
805.886536	57.545918
805.838806	64.305481
805.791016	74.446777
805.743225	47.367458
805.695435	84.570885
805.647644	84.557030
805.599854	91.306625
805.552063	40.574070
805.504272	77.754227
805.456543	87.881668
805.408691	77.728737
805.360962	118.263474
805.313110	30.405622
805.265320	84.446220
805.217468	87.809669
805.169678	74.288307
805.121887	87.780884
805.074036	54.010147
805.026245	97.877342
804.978394	50.617912
804.930664	43.861664
804.882812	67.468422
804.834961	77.575966
804.787170	77.563240
804.739258	64.063477
804.691467	80.909019
804.643677	64.042465
804.595825	74.142281
804.547974	64.021469
804.500183	53.903973
804.452332	70.737358
804.404480	101.036797
804.356567	77.448845
804.308777	70.702560
804.260925	74.057205
804.213074	53.850948
804.165222	80.763176
804.117310	63.927025
804.069458	77.372650
804.021606	50.452148
803.973755	60.532646
803.925903	80.696953
803.877991	67.236427
803.830200	104.199371
803.782288	67.214371
803.734436	47.042339
803.686523	104.148087
803.638672	63.822227
803.590820	90.679863
803.542908	94.022942
803.494995	33.574112
803.447144	90.635231
803.399231	80.551430
803.351379	80.538208
803.303467	36.907288
803.255554	90.575752
803.207703	30.186962
803.159790	60.364014
803.111877	70.413124
803.064026	67.049110
803.016052	93.853348
802.968140	60.324394
802.920227	77.068520
802.872314	90.456886
802.824463	60.294693
802.776550	77.030571
802.728577	50.229080
802.680725	43.524723
802.632751	80.340141
802.584839	53.551304
802.536865	83.660172
802.488953	50.187862
802.441040	76.942085
802.393127	56.860901
802.345154	76.916817
802.297241	66.873207
802.249329	83.577782
802.201355	106.961998
802.153381	70.182281
802.105469	60.146362
802.057556	80.181984
802.009583	93.530281
801.961609	100.194557
801.913696	70.124672
801.865723	60.096989
801.817749	33.381733
801.769775	70.090118
801.721802	73.415688
801.673889	93.422798
801.625916	73.391563
801.577942	63.373215
801.529968	73.367455
801.481995	53.349384
801.434021	70.009560
801.386047	66.664818
801.338074	63.321171
801.290100	116.625099
801.242126	103.279541
801.194092	46.634712
801.146118	86.593086
801.098145	73.259033
801.050110	73.246994
801.002136	109.852440
800.954163	96.521126
800.906128	96.505264
800.858093	56.562756
800.810120	83.166847
800.762085	86.479309
800.714111	46.558128
800.666138	86.450882
800.618103	86.436676
800.570068	59.830936
800.522095	66.467888
800.474060	93.039749
800.426025	112.958267
800.377991	86.365654
800.329956	53.139355
800.281982	66.413277
800.233948	69.722473
800.185913	92.948013
800.137817	59.742470
800.089844	56.414165
800.041809	76.312500
799.993774	69.665169
799.945679	72.970558
799.897644	43.111877
799.849609	62.999306
799.801575	106.086639
799.753540	53.034599
799.705505	96.109398
799.657410	66.271446
799.609375	89.451736
799.561279	89.437019
799.513245	76.174561
799.465149	56.293674
799.417114	76.149506
799.369080	79.447281
799.320923	76.124451
799.272888	69.493500
799.224792	72.790741
799.176697	99.243767
799.128662	95.919861
799.080566	82.675926
799.032471	66.129860
798.984436	52.895184
798.936340	56.191887
798.888245	95.840973
798.840149	72.694984
798.792053	59.467926
798.743958	69.367828
798.695862	118.896706
798.647766	36.323570
798.599670	108.952782
798.551575	49.515842
798.503418	49.507690
798.455383	82.499237
798.407227	135.276474
798.359131	92.368729
798.311035	79.160164
798.262878	69.253746
798.214722	85.728615
798.166626	98.901352
798.118469	88.996567
798.070435	59.321274
798.022278	59.311508
797.974121	82.363533
797.926025	88.937973
797.877869	55.988762
797.829773	75.737030
797.781616	82.309303
797.733459	55.961109
797.685364	52.660606
797.637207	72.396408
797.589050	65.804077
797.540894	75.662231
797.492737	42.758564
797.444580	78.925888
797.396423	72.336815
797.348267	59.174919
797.300171	65.739082
797.251953	95.305969
797.203796	62.431557
797.155640	65.706604
797.107422	65.695778
797.059265	88.674690
797.011169	85.376381
796.962952	65.663315
796.914734	52.521999
796.866577	88.616272
796.818420	68.912415
796.770203	108.273094
796.722046	72.170166
796.673889	59.038589
796.625671	81.984528
796.577454	81.971024
796.529297	52.452808
796.481079	72.110725
796.432922	75.376060
796.384705	68.810280
796.336487	91.731918
796.288330	72.063202
796.240051	111.352051
796.191895	58.941368
796.143677	55.657673
796.095459	114.570442
796.047241	55.639324
795.999023	65.447243
795.950806	49.077339
795.902588	58.883099
795.854370	55.602646
795.806152	71.944504
795.757935	91.550636
795.709717	91.535545
795.661499	78.446098
795.613220	75.165115
795.565002	68.617706
795.516785	94.742157
795.468506	91.460106
795.420288	84.913239
795.372070	68.572456
795.323792	101.209312
795.275574	81.606956
795.227295	58.747318
795.179016	71.790436
795.130798	61.990604
795.082520	71.766754
795.034241	91.324440
794.986023	65.220985
794.937744	74.991760
794.889465	97.799202
794.841248	74.967018
794.792908	110.802528
794.744690	52.133766
794.696411	91.219040
794.648132	81.432137
794.599915	110.729431
794.551575	91.173897
794.503296	104.181549
794.455017	100.909218
794.406738	107.401772
794.358459	87.859673
794.310120	52.056400
794.261841	78.071716
794.213623	58.544125
794.165222	78.045952
794.116943	97.541336
794.068665	58.515144
794.020325	84.507919
793.972107	103.992584
793.923767	90.978493
793.875427	94.212173
793.827148	74.707664
793.778809	81.190575
793.730530	97.412613
793.682251	87.656876
793.633850	90.888420
793.585510	71.400543
793.537231	100.593239
793.488953	81.110191
793.440613	103.803902
793.392273	74.596733
793.343933	45.399212
793.295593	68.087570
793.247253	113.460548
793.198914	106.959419
793.150574	55.091209
793.102234	103.683975
793.053894	113.385620
793.005554	93.932564
792.957153	93.917053
792.908875	87.425575
792.860474	45.324291
792.812195	71.212120
792.763794	74.436737
792.715454	71.188599
792.667114	119.706497
792.618652	77.634636
792.570312	122.901192
792.521973	80.842690
792.473633	71.129814
792.425232	100.211815
792.376831	126.052101
792.328491	80.789276
792.280090	87.238007
792.231750	96.915100
792.183289	116.278900
792.134949	80.735893
792.086548	109.782669
792.038147	125.906372
791.989807	61.328861
791.941406	90.364441
791.893005	45.174751
791.844604	51.619755
791.796265	90.319641
791.747803	93.529884
791.699402	119.311501
791.651001	112.843575
791.602600	64.471382
791.554199	77.352875
791.505798	83.785095
791.457397	80.549271
791.408936	128.857529
791.360596	99.848068
791.312134	83.729698
791.263733	96.595215
791.215271	93.359940
791.166870	90.125725
791.118408	83.674332
791.070007	93.313629
791.021606	125.469994
790.973145	102.932709
790.924683	112.564034
790.876282	115.761002
790.827820	96.451546
790.779419	99.650116
790.730896	106.061607
790.682495	141.392090
790.634033	109.239449
790.585632	80.309837
790.537170	83.508415
790.488708	80.283272
790.440247	73.848389
790.391724	128.410736
790.343323	83.453171
790.294861	102.694603
790.246399	93.051582
790.197876	80.203613
790.149414	115.474091
790.100952	86.591232
790.052490	80.163803
790.004028	89.768600
789.955505	92.959236
789.907104	112.173615
789.858582	96.132904
789.810120	112.136490
789.761597	124.931412
789.713135	76.868141
789.664673	102.473892
789.616150	86.448036
789.567627	105.641220
789.519104	112.025177
789.470703	105.606247
789.422180	86.390808
789.373657	105.571289
789.325195	76.766411
789.276611	99.140198
789.228149	86.333618
789.179626	70.334259
789.131165	134.252274
789.082581	134.230042
789.034119	134.207809
788.985596	99.041740
788.937073	114.997169
788.888489	102.202782
788.840027	79.832703
788.791443	89.397812
788.742981	79.806259
788.694458	188.311569
788.645874	124.456528
788.597351	92.529266
788.548767	95.704079
788.500305	137.153122
788.451721	95.672371
788.403198	130.730591
788.354675	127.520905
788.306091	108.374809
788.257568	121.104721
788.208984	89.220276
788.160400	82.833672
788.111877	89.190712
788.063293	127.394196
788.014771	117.820107
787.966187	111.432983
787.917664	105.047974
787.869080	89.116844
787.820496	114.559807
787.771912	66.815483
787.723389	98.616028
787.674805	133.586670
787.626221	117.663994
787.577637	73.130356
787.529053	165.310791
787.480469	117.605492
787.431885	88.983994
787.383301	88.969246
787.334717	133.431747
787.286133	95.292587
787.237549	149.266968
787.188904	104.787094
787.140320	136.518127
787.091736	107.926666
787.043091	101.561195
786.994568	136.450226
786.945923	98.354782
786.897278	107.855103
786.848694	104.665535
786.800049	142.702057
786.751465	107.801453
786.702881	129.974304
786.654236	129.952759
786.605652	123.593094
786.557007	104.561424
786.508362	129.888092
786.459717	95.024307
786.411133	98.175499
786.362488	101.325638
786.313904	117.138336
786.265259	98.126648
786.216553	132.923721
786.167969	123.408691
786.119324	129.715820
786.070679	110.714645
786.022095	145.486526
785.973389	145.462387
785.924744	116.982948
785.876099	139.091766
785.827393	94.819557
785.778809	113.764587
785.730164	148.501343
785.681458	126.363144
785.632812	116.866516
785.584167	132.637268
785.535461	157.875305
785.486816	138.907211
785.438171	113.632484
785.389465	154.640762
785.340820	116.750175
785.292175	126.195450
785.243408	129.328857
785.194763	170.307297
785.146057	126.132607
785.097412	132.417252
785.048767	154.461136
785.000061	126.069794
784.951355	135.502518
784.902649	113.425140
784.854004	138.607697
784.805237	141.734344
784.756592	160.605576
784.707886	113.349815
784.659180	116.479073
784.610474	103.869484
784.561768	163.645950
784.513062	163.618759
784.464355	154.153610
784.415649	150.982529
784.366882	163.537247
784.318237	144.643524
784.269531	176.058517
784.220764	154.025620
784.172058	150.857162
784.123352	163.401443
784.074585	131.956161
784.025818	135.075531
783.977173	175.883087
783.928406	157.012375
783.879700	160.126022
783.830933	116.150551
783.782227	134.963348
783.733459	141.217239
783.684753	160.019608
783.635986	150.581650
783.587219	119.190666
783.538452	172.484131
783.489746	166.184357
783.440979	147.346542
783.392212	150.456558
783.343506	144.163559
783.294739	147.273071
783.245911	122.184998
783.197205	159.753815
783.148438	144.067719
783.099670	153.437927
783.050842	131.496353
783.002136	175.299332
782.953308	184.659653
782.904541	143.947998
782.855774	190.855820
782.807007	137.643600
782.758240	125.109734
782.709473	150.106720
782.660645	118.814720
782.611877	143.804428
782.563110	156.283157
782.514282	193.758881
782.465515	168.729675
782.416687	184.322128
782.367920	137.437698
782.319092	143.660965
782.270325	174.862518
782.221497	162.345322
782.172668	149.832291
782.123901	177.896240
782.075073	156.023376
782.026306	187.196899
781.977417	159.090897
781.928650	184.015701
781.879822	152.801163
781.830994	159.011490
781.782166	199.510620
781.733337	146.491226
781.684509	168.281067
781.635742	158.905655
781.586853	205.608398
781.538086	193.115128
781.489197	174.397537
781.440369	174.368515
781.391541	152.547043
781.342712	155.634338
781.293884	158.720612
781.244995	168.029129
781.196167	171.112289
781.147339	202.189957
781.098450	199.046188
781.049622	146.150208
781.000732	245.615829
780.951904	208.272415
780.903015	177.157471
780.854187	183.342987
780.805298	242.345291
780.756409	161.536621
780.707642	201.887146
780.658691	229.802475
780.609863	217.344513
780.560974	232.830338
780.512085	229.687668
780.463257	198.615707
780.414368	220.302597
780.365479	201.651886
780.316589	241.941940
780.267700	201.584702
780.218811	207.752686
780.169922	179.815643
780.121033	148.788162
780.072144	204.549637
780.023254	164.232178
779.974365	192.088654
779.925476	176.568207
779.876587	179.635956
779.827637	185.799332
779.778748	235.306610
779.729797	182.641785
779.680908	235.228180
779.632080	207.337646
779.583069	213.491241
779.534180	182.520065
779.485291	204.140945
779.436340	191.736801
779.387451	244.269073
779.338501	216.404877
779.289612	191.640930
779.240662	222.513657
779.191772	210.116745
779.142822	200.813416
779.093872	203.868851
779.044983	216.188492
778.996033	243.943466
778.947083	250.077545
778.898132	225.340942
778.849182	203.698929
778.800293	203.664963
778.751282	200.545685
778.702393	237.529877
778.653381	246.743134
778.604431	262.120850
778.555481	246.660828
778.506531	234.288696
778.457581	237.331848
778.408569	255.782562
778.359680	221.846664
778.310669	212.567581
778.261719	261.814941
778.212708	206.337341
778.163757	224.777802
778.114807	230.897568
778.065857	243.171524
778.016846	190.811630
777.967896	236.936188
777.918884	267.662445
777.869934	295.302368
777.820923	270.648682
777.771973	196.802551
777.722900	261.334778
777.673950	261.291138
777.624939	242.806534
777.575989	255.057953
777.526978	251.942917
777.477966	267.260651
777.429016	264.144592
777.379944	267.171448
777.330994	288.619812
777.281921	273.222076
777.232971	227.135468
777.183960	254.717529
777.134949	248.538254
777.085938	245.428894
777.036865	263.791992
776.987854	257.614288
776.938904	245.305969
776.889832	233.001740
776.840820	275.877045
776.791748	235.988724
776.742737	269.656342
776.693726	266.547546
776.644653	248.123505
776.595642	260.333038
776.546570	315.409668
776.497559	293.924957
776.448547	241.835342
776.399475	247.916336
776.350403	290.717499
776.301392	290.668945
776.252319	293.679535
776.203308	275.278564
776.154236	263.000000
776.105164	281.301819
776.056152	290.426178
776.007080	290.377655
775.958008	327.002289
775.908936	342.225555
775.859924	253.571198
775.810852	284.074463
775.761719	287.081024
775.712708	308.407867
775.663635	283.932037
775.614502	326.619904
775.565430	311.305237
775.516357	280.738190
775.467285	292.895203
775.418213	320.300598
775.369141	347.696777
775.320068	301.896729
775.270935	304.895203
775.221863	307.892670
775.172729	301.745331
775.123657	313.884552
775.074585	356.488861
775.025452	304.640381
774.976379	298.497650
774.927307	319.765411
774.878174	371.474823
774.829102	353.146515
774.779968	310.473419
774.730835	313.464844
774.681702	310.369568
774.632568	349.867950
774.583496	358.934906
774.534424	371.040100
774.485229	377.059631
774.436096	310.110077
774.387024	367.814117
774.337891	361.674042
774.288757	300.838135
774.239624	355.476501
774.190491	413.134308
774.141296	346.245789
774.092224	340.114380
774.043091	370.419739
773.993896	336.964844
773.944763	336.908447
773.895630	379.337921
773.846497	324.658905
773.797363	336.739319
773.748169	330.616577
773.699097	354.822632
773.649902	354.763214
773.600769	360.767151
773.551636	363.737915
773.502380	372.768951
773.453247	396.947601
773.404114	405.970032
773.354919	372.581726
773.305786	354.347687
773.256531	378.513184
773.207397	351.201416
773.158264	372.332245
773.109070	348.057220
773.059875	363.129333
773.010681	417.528778
772.961487	384.183136
772.912292	375.045135
772.863159	393.126617
772.813965	374.919495
772.764771	435.317444
772.715576	341.546051
772.666382	471.435913
772.617188	374.668335
772.567993	422.941772
772.518799	368.501801
772.469604	419.780060
772.420349	446.885193
772.371216	404.544464
772.321960	461.827850
772.272766	434.588684
772.223572	404.341125
772.174316	425.392151
772.125122	413.255005
772.075867	455.409119
772.026672	410.101044
771.977478	458.271423
771.928223	449.151276
771.879028	443.048126
771.829773	458.041016
771.780579	494.119293
771.731323	439.812958
771.682129	439.739227
771.632874	445.688324
771.583618	418.515472
771.534363	451.559662
771.485107	457.503754
771.435913	430.342529
771.386658	460.359222
771.337402	415.156342
771.288147	430.126099
771.238892	493.208740
771.189636	445.016174
771.140381	475.005157
771.091125	547.066040
771.041870	465.829773
770.992615	492.795288
770.943298	480.695251
770.894104	525.672241
770.844849	531.590698
770.795532	480.453369
770.746277	510.396057
770.697021	501.304962
770.647705	546.240723
770.598450	498.135956
770.549194	525.055176
770.499878	539.966187
770.450623	548.873474
770.401306	515.794495
770.352051	557.684204
770.302734	536.606018
770.253479	554.499756
770.204163	548.413086
770.154846	542.328430
770.105591	584.178467
770.056274	500.212433
770.006958	488.149353
769.957703	601.849976
769.908386	625.699158
769.859070	568.721924
769.809753	508.771057
769.760437	553.569641
769.711121	595.361450
769.661804	589.278931
769.612488	586.189270
769.563171	565.158997
769.513855	544.135803
769.464539	567.958496
769.415222	606.716858
769.365906	609.603210
769.316589	534.807129
769.267212	642.258240
769.217896	627.216614
769.168579	597.248840
769.119263	686.720764
769.069885	650.782532
769.020569	587.993713
768.971252	641.611206
768.921875	641.503418
768.872498	647.362122
768.823181	629.356934
768.773865	641.180115
768.724487	679.834900
768.675110	643.945923
768.625793	682.587219
768.576416	745.057312
768.527100	688.317261
768.477722	643.513184
768.428345	708.937012
768.378967	702.861450
768.329590	681.899231
768.280212	717.511292
768.230835	720.367432
768.181519	622.030945
768.132141	681.440857
768.082764	675.375854
768.033386	743.680969
767.983948	713.813721
767.934570	746.404663
767.885193	710.600464
767.835815	695.617371
767.786438	746.028198
767.737061	775.619995
767.687683	707.151428
767.638245	710.003235
767.588867	727.705200
767.539429	730.552551
767.490051	798.721863
767.440674	831.243530
767.391296	804.389648
767.341858	789.415710
767.292419	824.889709
767.243042	750.582703
767.193604	809.781067
767.144165	809.644836
767.094788	803.578125
767.045410	868.667114
766.995911	868.520935
766.946533	853.556152
766.897156	820.816895
766.847656	838.455200
766.798218	823.502930
766.748779	847.058289
766.699341	888.373169
766.649963	944.477844
766.600525	805.187256
766.551086	876.085693
766.501648	935.123291
766.452209	932.007141
766.402771	893.392944
766.353333	905.073547
766.303894	904.921204
766.254395	940.250000
766.204956	960.785583
766.155518	904.464233
766.106018	933.864685
766.056580	960.300354
766.007141	992.635681
765.957642	915.670349
765.908203	918.469482
765.858765	980.323181
765.809326	994.919495
765.759827	1006.559082
765.710327	1003.438293
765.660889	967.859802
765.611450	988.348877
765.561890	982.282776
765.512451	1008.661011
765.462952	1088.108887
765.413452	1014.217834
765.364014	1073.003174
765.314514	1037.454712
765.265015	1004.864929
765.215515	1075.407349
765.166077	1010.417969
765.116516	1048.536987
765.067017	1172.043335
765.017517	1195.400513
764.968079	1086.276978
764.918579	1180.280884
764.869019	1121.224976
764.819580	1123.978394
764.770020	1173.800537
764.720520	1229.488525
764.671021	1173.404907
764.621521	1146.743774
764.572021	1123.031494
764.522461	1184.569092
764.472961	1157.919434
764.423462	1210.615234
764.373901	1178.094360
764.324402	1180.833130
764.274841	1321.605225
764.225342	1224.480957
764.175781	1303.544067
764.126282	1318.001343
764.076782	1256.145752
764.027222	1343.966675
763.977661	1329.070435
763.928162	1364.047485
763.878540	1243.566895
763.829041	1354.790039
763.779480	1360.425415
763.729919	1357.264526
763.680359	1351.173706
763.630859	1336.293335
763.581299	1464.986816
763.531738	1435.444824
763.482178	1338.546143
763.432617	1405.675659
763.383057	1349.806519
763.333496	1493.026367
763.283936	1407.891235
763.234375	1401.800659
763.184814	1398.638062
763.135193	1401.327515
763.085693	1468.366821
763.036072	1550.006104
762.986511	1532.200195
762.936951	1473.470581
762.887329	1502.452393
762.837769	1510.966553
762.788147	1519.477661
762.738586	1679.908081
762.689026	1518.964722
762.639404	1632.611328
762.589844	1588.534302
762.540222	1655.416992
762.490662	1687.247803
762.441040	1681.125610
762.391418	1663.333008
762.341797	1639.711060
762.292175	1642.351196
762.242615	1767.489868
762.192993	1700.119751
762.143372	1778.555542
762.093811	1728.697266
762.044189	1804.186890
761.994568	1803.882202
761.944946	1777.354126
761.895325	1791.619995
761.845703	1785.491821
761.796082	1820.136841
761.746460	1805.270752
761.696838	1880.657837
761.647217	1944.376465
761.597595	1862.560913
761.547974	1879.704712
761.498291	1876.477783
761.448669	1911.066040
761.399048	1939.825928
761.349365	1956.944824
761.299744	1971.150635
761.250122	2017.326416
761.200500	2008.266479
761.150818	2063.137695
761.101196	2088.937012
761.051514	2062.440430
761.001892	2044.665527
760.952209	1986.242676
760.902588	1951.066406
760.852844	2101.686279
760.803223	2124.550049
760.753540	2193.836670
760.703857	2144.141602
760.654236	2097.364258
760.604553	2184.022461
760.554871	2105.354980
760.505249	2290.563477
760.455566	2153.925049
760.405823	2115.880859
760.356201	2321.279297
760.306519	2381.733887
760.256775	2190.129150
760.207153	2288.239990
760.157471	2496.365967
760.107788	2345.376465
760.058044	2446.305908
760.008362	2350.371826
759.958679	2381.808838
759.908997	2421.915771
759.859314	2473.581543
759.809570	2490.518555
759.759888	2484.312744
759.710205	2544.616211
759.660461	2529.729980
759.610779	2549.536377
759.561096	2531.763916
759.511353	2655.590576
759.461670	2556.909424
759.411926	2677.801025
759.362183	2746.664062
759.312500	2717.322266
759.262756	2754.395996
759.213074	2797.230469
759.163330	2840.050293
759.113586	2689.510986
759.063843	2720.793213
759.014099	2904.957520
758.964417	2832.358643
758.914673	2785.738525
758.864929	2978.447754
758.815186	2839.568604
758.765503	2885.204834
758.715698	2890.479736
758.665955	3002.362793
758.616211	3013.377686
758.566528	2995.584961
758.516785	3098.753418
758.466980	3103.987305
758.417236	3060.277832
758.367493	3059.759521
758.317749	3053.485107
758.267944	3035.703125
758.218201	3150.267090
758.168457	3215.892090
758.118652	3261.363037
758.068909	3211.927002
758.019165	3343.632812
757.969421	3394.807617
757.919617	3339.625732
757.869812	3198.256104
757.820068	3462.035400
757.770264	3567.733643
757.720520	3547.024414
757.670715	3411.458008
757.620911	3537.208496
757.571167	3522.255859
757.521423	3662.295410
757.471558	3664.544189
757.421753	3563.502197
757.372009	3729.281250
757.322205	3688.494385
757.272400	3682.133545
757.222595	3776.127441
757.172852	3769.753662
757.122986	3792.044189
757.073181	3842.984863
757.023438	3879.581787
756.973572	3881.788574
756.923767	4061.581055
756.873962	4043.709473
756.824158	4020.116699
756.774353	4096.731934
756.724548	4147.559082
756.674683	3917.905762
756.624878	4011.666748
756.575073	4154.031250
756.525208	4273.463867
756.475403	4198.380859
756.425598	4297.749023
756.375732	4274.147949
756.325928	4261.988770
756.276062	4278.413574
756.226257	4517.718262
756.176392	4459.811035
756.126587	4384.784180
756.076721	4609.667969
756.026855	4568.907715
755.977051	4568.131836
755.927185	4667.267578
755.877319	4686.454102
755.827515	4814.071777
755.777649	4704.834961
755.727783	4755.383789
755.677979	4862.959473
755.628052	4825.061523
755.578186	4884.117676
755.528381	4809.169434
755.478455	4899.560547
755.428589	4938.625000
755.378784	4997.621094
755.328857	5033.806641
755.278992	5183.911621
755.229126	5254.226562
755.179199	5088.188477
755.129395	5232.513672
755.079468	5305.630371
755.029602	5418.564453
754.979736	5229.847656
754.929871	5459.397461
754.879944	5461.314453
754.830078	5312.500977
754.780151	5587.414551
754.730286	5654.696777
754.680359	5693.531250
754.630493	5644.249512
754.580627	5580.776367
754.530701	5602.556152
754.480835	5950.994141
754.430908	5671.654297
754.380981	5906.377441
754.331116	5899.695312
754.281189	6049.140137
754.231262	6104.875000
754.181335	6109.512695
754.131409	6108.474121
754.081482	6237.924316
754.031555	6214.173828
753.981689	6315.204102
753.931763	6206.390137
753.881836	6434.952148
753.831909	6385.674805
753.781982	6461.102051
753.732056	6570.503418
753.682129	6351.256348
753.632202	6610.753906
753.582214	6660.603516
753.532288	6854.837891
753.482361	6712.125488
753.432373	6858.166992
753.382446	6842.850586
753.332520	7011.455566
753.282593	7001.775391
753.232605	7043.012207
753.182678	7251.088379
753.132751	7218.751953
753.082764	7211.869141
753.032837	7453.729004
752.982849	7412.895020
752.932861	7434.238770
752.882935	7529.028809
752.832947	7683.104492
752.782959	7557.532227
752.733032	7607.072754
752.683044	7763.878906
752.633118	7988.376953
752.583130	7939.038574
752.533142	7853.033691
752.483154	8040.724121
752.433167	8053.459473
752.383179	8147.979980
752.333252	8152.232422
752.283264	8269.258789
752.233276	8290.401367
752.183228	8396.089844
752.133301	8312.940430
752.083313	8627.081055
752.033325	8684.768555
751.983276	8581.894531
751.933289	8757.842773
751.883301	8697.224609
751.833252	8926.579102
751.783325	9003.866211
751.733276	8960.121094
751.683289	9259.653320
751.633301	9308.711914
751.583252	9473.074219
751.533264	9403.967773
751.483215	9512.021484
751.433228	9620.039062
751.383240	9657.750000
751.333130	9706.689453
751.283142	9904.531250
751.233093	9922.507812
751.183105	10047.214844
751.133118	10149.412109
751.083069	10158.913086
751.033020	10480.033203
750.982971	10632.627930
750.932922	10571.879883
750.882935	10488.704102
750.832886	10635.607422
750.782837	10779.654297
750.732788	10853.539062
750.682739	10966.655273
750.632690	10959.177734
750.582642	11260.043945
750.532654	11510.359375
750.482544	11670.920898
750.432495	11548.458984
750.382446	11538.085938
750.332397	11866.601562
750.282288	11654.560547
750.232300	12125.730469
750.182190	11980.899414
750.132141	12278.327148
750.082092	12298.619141
750.031982	12335.690430
749.981934	12758.786133
749.931885	12454.544922
749.881775	12785.193359
749.831665	12783.011719
749.781616	13024.035156
749.731567	12817.779297
749.681519	13184.466797
749.631409	13201.774414
749.581299	13445.353516
749.531189	13540.816406
749.481079	13625.076172
749.431030	13645.087891
749.380981	13670.674805
749.330811	13768.823242
749.280762	14095.774414
749.230652	14428.193359
749.180542	14478.735352
749.130493	14523.680664
749.080322	14861.432617
749.030273	14780.823242
748.980103	14956.720703
748.930054	15193.878906
748.879944	15163.416016
748.829834	15389.311523
748.779663	15863.077148
748.729553	15877.080078
748.679443	16074.886719
748.629333	16074.925781
748.579224	16509.271484
748.529114	16314.387695
748.479004	16528.679688
748.428833	16598.205078
748.378723	16984.865234
748.328552	16706.580078
748.278381	17262.742188
748.228333	17365.458984
748.178162	17671.097656
748.127991	17882.117188
748.077881	18112.521484
748.027710	17939.919922
747.977600	18309.148438
747.927490	18264.351562
747.877319	18566.742188
747.827148	18866.250000
747.776978	18996.292969
747.726807	19489.941406
747.676697	19236.816406
747.626526	19641.453125
747.576355	19607.576172
747.526245	19964.849609
747.476013	20172.228516
747.425903	20401.720703
747.375671	20597.861328
747.325562	20929.769531
747.275391	21050.916016
747.225220	20822.849609
747.174988	21445.474609
747.124878	21785.318359
747.074646	21709.578125
747.024536	22040.951172
746.974304	22117.476562
746.924133	22207.818359
746.873962	22530.630859
746.823730	23132.841797
746.773621	23115.048828
746.723389	23196.855469
746.673157	23502.677734
746.622986	24010.279297
746.572815	24271.615234
746.522644	24585.388672
746.472412	24622.642578
746.422241	25289.992188
746.372009	25045.269531
746.321777	25477.486328
746.271606	25873.646484
746.221375	25899.597656
746.171143	26107.781250
746.120972	26434.609375
746.070740	26755.800781
746.020508	26922.332031
745.970276	27132.955078
745.920105	27186.246094
745.869873	27509.845703
745.819641	28293.912109
745.769409	28278.037109
745.719238	28309.035156
745.669006	28477.849609
745.618713	29415.550781
745.568481	29021.972656
745.518311	29995.072266
745.468018	30009.218750
745.417786	30271.234375
745.367554	30563.449219
745.317322	30913.382812
745.267090	30968.648438
745.216858	30955.085938
745.166565	31910.169922
745.116333	32177.085938
745.066040	32435.658203
745.015808	32859.164062
744.965576	32815.035156
744.915344	33026.621094
744.865051	33469.046875
744.814819	33919.566406
744.764526	33943.984375
744.714294	34493.179688
744.664001	34654.839844
744.613708	35519.585938
744.563477	36068.226562
744.513184	36199.328125
744.462891	36335.875000
744.412598	36922.511719
744.362366	36743.292969
744.312073	37244.601562
744.261841	37652.460938
744.211548	37796.863281
744.161194	38582.937500
744.110962	38595.515625
744.060669	39227.660156
744.010376	39637.562500
743.960083	39669.132812
743.909790	39958.253906
743.859497	40304.808594
743.809143	41034.718750
743.758850	40849.667969
743.708557	41305.410156
743.658325	42155.230469
743.607971	42153.472656
743.557678	43139.687500
743.507385	42918.855469
743.457092	43223.375000
743.406738	43932.621094
743.356445	44048.156250
743.306152	44341.382812
743.255798	45069.207031
743.205505	45247.347656
743.155212	45931.035156
743.104858	46106.234375
743.054504	46185.746094
743.004211	46814.285156
742.953857	46937.343750
742.903503	47505.457031
742.853210	48592.113281
742.802917	47947.742188
742.752502	48624.554688
742.702209	49290.218750
742.651855	49374.519531
742.601562	49671.562500
742.551208	50582.164062
742.500854	50049.910156
742.450500	50807.445312
742.400146	51365.726562
742.349792	51926.535156
742.299438	52127.449219
742.249084	52205.679688
742.198730	52885.914062
742.148376	53102.890625
742.098022	53425.996094
742.047668	53887.847656
741.997314	54570.039062
741.946960	54821.953125
741.896545	54910.503906
741.846191	55496.929688
741.795776	55664.218750
741.745483	56361.828125
741.695068	56534.343750
741.644714	56742.148438
741.594360	57398.429688
741.543945	57986.531250
741.493530	57577.082031
741.443176	58596.964844
741.392761	58578.746094
741.342468	58609.417969
741.292053	58987.687500
741.241638	59048.140625
741.191223	59909.429688
741.140869	60175.988281
741.090454	60626.992188
741.040100	60711.535156
740.989685	61080.902344
740.939270	61273.832031
740.888855	62177.226562
740.838440	61930.632812
740.788086	62261.574219
740.737610	62389.101562
740.687195	62511.167969
740.636780	62700.929688
740.586426	63489.347656
740.536011	63741.167969
740.485535	63792.492188
740.435181	64377.226562
740.384766	64276.812500
740.334290	64528.316406
740.283875	64725.605469
740.233521	65096.000000
740.183044	65312.054688
740.132568	65755.250000
740.082214	65884.570312
740.031738	65946.242188
739.981323	66129.546875
739.930847	66110.054688
739.880432	66271.648438
739.829956	66741.226562
739.779602	66986.406250
739.729126	67134.242188
739.678711	67538.609375
739.628174	67343.359375
739.577759	67769.140625
739.527283	67962.625000
739.476868	67826.773438
739.426392	68222.562500
739.375977	68221.609375
739.325439	68555.140625
739.275024	67947.289062
739.224609	68722.992188
739.174133	68902.578125
739.123657	69109.062500
739.073181	68471.867188
739.022705	69087.953125
738.972229	69437.085938
738.921753	69344.304688
738.871277	69165.375000
738.820801	69403.898438
738.770325	69529.250000
738.719849	69754.164062
738.669373	69879.414062
738.618896	69740.890625
738.568420	69427.531250
738.517944	69504.335938
738.467407	70054.492188
738.416931	69539.546875
738.366394	69941.617188
738.315979	69859.671875
738.265442	70154.039062
738.214905	70354.242188
738.164429	69656.960938
738.113953	70265.515625
738.063416	69947.203125
738.012939	70249.343750
737.962463	70492.304688
737.911926	69809.015625
737.861389	70261.320312
737.810913	70168.695312
737.760376	70148.546875
737.709839	69972.804688
737.659363	69410.882812
737.608826	69632.218750
737.558289	69872.257812
737.507812	69771.734375
737.457275	69885.679688
737.406738	69860.218750
737.356201	69218.492188
737.305664	70540.695312
737.255127	69518.718750
737.204651	69629.914062
737.154114	69168.062500
737.103516	69624.625000
737.053040	69037.125000
737.002441	68597.015625
736.951904	69224.679688
736.901367	68894.375000
736.850830	68869.109375
736.800293	69036.406250
736.749756	69099.359375
736.699158	68608.882812
736.648621	68591.687500
736.598083	68216.382812
736.547546	68466.468750
736.496948	68072.609375
736.446411	68271.875000
736.395813	67976.992188
736.345276	68026.671875
736.294678	67694.554688
736.244141	67568.085938
736.193604	67527.054688
736.143005	67197.859375
736.092407	67212.929688
736.041809	66963.914062
735.991272	67080.367188
735.940674	66711.460938
735.890137	66507.984375
735.839539	66365.875000
735.788940	66628.921875
735.738342	65895.273438
735.687805	66376.773438
735.637146	65720.671875
735.586609	65512.230469
735.536011	65618.078125
735.485413	65601.414062
735.434814	65385.105469
735.384216	65017.167969
735.333618	65253.402344
735.282959	65063.867188
735.232422	64914.296875
735.181763	64413.703125
735.131165	64256.312500
735.080566	64176.078125
735.029968	63707.761719
734.979370	63826.980469
734.928711	63358.882812
734.878113	63661.437500
734.827515	63095.238281
734.776917	63079.015625
734.726257	62765.378906
734.675598	63258.984375
734.625000	62852.511719
734.574402	62138.296875
734.523743	62207.160156
734.473145	62379.468750
734.422485	61472.050781
734.371887	61360.632812
734.321228	61243.941406
734.270569	61121.988281
734.219971	61368.554688
734.169312	61212.160156
734.118652	60515.218750
734.067993	60552.441406
734.017395	60274.406250
733.966736	59969.976562
733.916077	60208.527344
733.865417	60153.093750
733.814758	59218.796875
733.764160	58890.933594
733.713440	59640.234375
733.662781	58881.128906
733.612122	59000.562500
733.561462	59254.843750
733.510803	58041.339844
733.460144	58189.933594
733.409485	57627.351562
733.358826	57791.816406
733.308167	57707.816406
733.257446	57499.656250
733.206787	56879.457031
733.156067	57041.289062
733.105469	56516.449219
733.054749	56263.746094
733.004089	56087.683594
732.953369	56217.859375
732.902710	55532.539062
732.852051	55522.917969
732.801331	55595.078125
732.750671	55311.132812
732.699951	55272.542969
732.649292	54941.285156
732.598572	54415.058594
732.547852	54632.308594
732.497192	54865.292969
732.446472	54070.585938
732.395752	54032.238281
732.345032	53759.476562
732.294373	53810.726562
732.243652	53198.429688
732.192932	53199.738281
732.142212	52974.679688
732.091492	52786.539062
732.040771	53124.714844
731.990051	52484.113281
731.939331	52030.488281
731.888611	51703.253906
731.837952	51846.792969
731.787170	51272.578125
731.736450	51550.195312
731.685730	50836.937500
731.635010	51287.949219
731.584290	51095.152344
731.533569	50416.488281
731.482788	50507.539062
731.432068	50154.804688
731.381348	49904.574219
731.330566	49906.414062
731.279846	49427.988281
731.229126	49603.089844
731.178345	49631.210938
731.127625	49079.632812
731.076843	48470.546875
731.026062	49023.269531
730.975342	48451.101562
730.924622	48434.832031
730.873840	48381.871094
730.823059	48100.960938
730.772339	48058.554688
730.721558	47578.722656
730.670837	47413.324219
730.620056	47038.507812
730.569275	46949.183594
730.518494	47218.496094
730.467773	46979.988281
730.416931	46804.367188
730.366211	46623.566406
730.315430	46631.167969
730.264648	45922.167969
730.213867	45963.875000
730.163086	45825.171875
730.112305	45621.167969
730.061523	45641.992188
730.010742	45129.746094
729.959961	45291.726562
729.909180	44750.984375
729.858337	44871.183594
729.807556	44868.609375
729.756775	44346.492188
729.705994	44456.253906
729.655212	43858.699219
729.604370	43509.246094
729.553589	43835.632812
729.502808	43504.558594
729.451965	43173.601562
729.401123	43828.425781
729.350342	43166.417969
729.299561	42546.343750
729.248718	42859.515625
729.197876	42547.187500
729.147095	42591.898438
729.096313	42438.621094
729.045471	42350.503906
728.994629	42124.410156
728.943787	42028.566406
728.893005	41911.929688
728.842163	41977.515625
728.791321	41501.824219
728.740479	41702.746094
728.689697	41107.609375
728.638794	41181.085938
728.588013	40986.695312
728.537170	40813.175781
728.486328	40663.105469
728.435486	40042.667969
728.384644	40118.855469
728.333801	40054.718750
728.282959	40050.347656
728.232117	39947.285156
728.181274	39678.062500
728.130371	39798.378906
728.079590	39640.894531
728.028748	39623.613281
727.977844	39385.769531
727.927002	39020.878906
727.876099	39151.570312
727.825256	38854.277344
727.774414	39034.218750
727.723572	38394.812500
727.672668	38515.144531
727.621826	38166.328125
727.570923	38268.519531
727.520081	38168.585938
727.469238	37889.945312
727.418335	37950.687500
727.367493	37814.605469
727.316589	37663.031250
727.265686	37167.226562
727.214844	37165.929688
727.163940	36895.511719
727.113037	37367.726562
727.062134	37213.769531
727.011230	36961.582031
726.960388	36818.093750
726.909485	36545.375000
726.858582	36404.589844
726.807678	35969.210938
726.756775	36355.726562
726.705872	36155.621094
726.654968	35921.996094
726.604065	35693.621094
726.553162	35844.921875
726.502258	35528.851562
726.451355	35481.359375
726.400452	35593.898438
726.349548	34906.441406
726.298645	35109.339844
726.247742	34878.796875
726.196777	34981.039062
726.145874	34582.976562
726.094910	34597.574219
726.044006	34552.875000
725.993103	34513.343750
725.942200	34424.867188
725.891235	34042.703125
725.840332	33982.667969
725.789368	33860.843750
725.738464	33777.683594
725.687561	33583.843750
725.636597	33662.933594
725.585632	33399.687500
725.534729	33028.449219
725.483826	33192.496094
725.432800	33004.066406
725.381897	32815.699219
725.330994	33002.835938
725.280029	32709.117188
725.229065	32590.302734
725.178101	32646.300781
725.127136	32481.281250
725.076172	32308.609375
725.025269	32464.806641
724.974304	32132.957031
724.923340	31901.371094
724.872375	31888.099609
724.821411	31548.820312
724.770386	32374.884766
724.719482	31527.541016
724.668518	31622.099609
724.617554	31129.183594
724.566589	31495.642578
724.515564	31474.757812
724.464600	30874.437500
724.413635	31215.111328
724.362610	30576.599609
724.311646	30681.449219
724.260681	30586.416016
724.209717	30401.757812
724.158691	30276.070312
724.107727	30293.830078
724.056763	30081.152344
724.005737	29953.023438
723.954712	30377.773438
723.903748	29786.460938
723.852722	29433.296875
723.801758	29650.707031
723.750793	29602.046875
723.699768	29336.041016
723.648743	29256.767578
723.597717	28942.343750
723.546692	28860.609375
723.495728	29320.648438
723.444763	28758.544922
723.393677	28896.570312
723.342712	28674.423828
723.291687	28654.087891
723.240662	28730.781250
723.189636	28490.908203
723.138611	28171.996094
723.087585	28271.695312
723.036621	27978.445312
722.985535	27746.519531
722.934509	27800.330078
722.883484	27935.718750
722.832458	27665.675781
722.781433	27528.281250
722.730408	27454.650391
722.679321	27105.833984
722.628296	27386.447266
722.577271	27083.615234
722.526245	27081.423828
722.475220	26829.677734
722.424194	27161.058594
722.373108	26611.550781
722.322021	26902.130859
722.270996	26849.074219
722.219971	26567.052734
722.168945	26837.134766
722.117859	26779.027344
722.066772	26639.566406
722.015747	26502.695312
721.964661	26180.302734
721.913574	26127.429688
721.862549	26064.410156
721.811462	25754.964844
721.760437	25554.855469
721.709351	25834.839844
721.658325	25543.369141
721.607178	25668.380859
721.556152	25491.269531
721.505066	25654.316406
721.453979	25593.996094
721.402893	25181.035156
721.351807	25176.625000
721.300720	25116.417969
721.249634	25299.667969
721.198547	24960.568359
721.147461	24788.892578
721.096375	25182.460938
721.045288	24405.171875
720.994202	24461.701172
720.943115	24546.076172
720.892029	24579.765625
720.840881	24253.863281
720.789795	23852.119141
720.738708	24349.148438
720.687622	24355.003906
720.636536	24085.037109
720.585388	24174.425781
720.534302	23745.218750
720.483215	24128.013672
720.432068	23769.767578
720.380981	23715.035156
720.329834	23695.710938
720.278687	23464.091797
720.227600	23543.367188
720.176453	23372.490234
720.125366	23605.839844
720.074219	23139.515625
720.023071	23049.603516
719.971985	22952.146484
719.920837	23079.382812
719.869751	22840.619141
719.818604	22924.929688
719.767456	22918.386719
719.716309	22704.998047
719.665161	22617.787109
719.614075	22729.812500
719.562927	22599.767578
719.511780	22157.195312
719.460571	22417.937500
719.409485	22212.416016
719.358337	22223.634766
719.307190	22131.570312
719.256042	22117.611328
719.204834	22103.658203
719.153748	21951.238281
719.102600	21959.970703
719.051392	21910.814453
719.000244	21660.369141
718.949097	21641.470703
718.897949	21368.521484
718.846741	21822.496094
718.795593	21240.320312
718.744446	21488.000000
718.693298	21242.916016
718.642090	21168.816406
718.590881	21057.048828
718.539795	21083.498047
718.488525	20901.451172
718.437378	21056.001953
718.386230	20655.562500
718.335022	20792.527344
718.283813	20552.921875
718.232666	20727.498047
718.181458	20417.728516
718.130310	20614.845703
718.079102	20435.638672
718.027893	20291.603516
717.976685	20247.917969
717.925537	19855.769531
717.874329	20228.269531
717.823120	19966.580078
717.771912	20058.287109
717.720703	19749.117188
717.669495	19860.869141
717.618286	19844.855469
717.567139	19515.851562
717.515869	19504.910156
717.464661	19626.634766
717.413513	19508.062500
717.362305	19194.359375
717.311035	19306.066406
717.259827	19337.689453
717.208557	18909.138672
717.157410	18905.814453
717.106140	18959.988281
717.054932	19011.644531
717.003723	19040.789062
716.952454	18797.566406
716.901245	18881.697266
716.850037	18750.988281
716.798828	18660.281250
716.747559	18574.599609
716.696289	18354.136719
716.645081	18385.853516
716.593872	18280.296875
716.542603	18277.080078
716.491394	18136.654297
716.440125	17986.298828
716.388855	18072.912109
716.337646	18099.652344
716.286377	17799.802734
716.235107	17836.548828
716.183899	17454.611328
716.132629	17391.740234
716.081360	17555.587891
716.030090	17776.667969
715.978882	17489.638672
715.927551	17302.306641
715.876282	17256.939453
715.825073	17497.824219
715.773804	17148.830078
715.722473	17118.439453
715.671265	17287.076172
715.619934	16975.609375
715.568726	16788.593750
715.517456	16924.875000
715.466187	16834.884766
715.414856	16702.671875
715.363586	16724.580078
715.312317	16617.279297
715.260986	16793.212891
715.209778	16748.029297
715.158447	16176.396484
715.107178	16344.865234
715.055908	16222.827148
715.004639	16411.082031
714.953308	16001.210938
714.902039	16298.608398
714.850708	16104.721680
714.799438	16032.435547
714.748108	16113.922852
714.696777	16192.901367
714.645508	15860.345703
714.594238	15815.415039
714.542908	15857.231445
714.491577	15685.955078
714.440308	15546.943359
714.388977	15804.261719
714.337708	15514.219727
714.286377	15330.743164
714.235046	15419.630859
714.183716	15308.009766
714.132385	15411.716797
714.081116	14971.074219
714.029785	15109.434570
713.978455	15232.905273
713.927124	15010.134766
713.875732	15012.431641
713.824463	14965.287109
713.773071	14713.021484
713.721802	14670.887695
713.670410	14643.591797
713.619080	14749.697266
713.567749	14556.919922
713.516418	14648.185547
713.465088	14608.566406
713.413757	14522.059570
713.362427	14294.903320
713.311035	14415.759766
713.259705	14393.477539
713.208313	14408.203125
713.156982	14065.309570
713.105652	14107.211914
713.054260	14087.461914
713.002930	13927.214844
712.951538	14084.951172
712.900208	14129.282227
712.848816	14038.093750
712.797485	13816.384766
712.746094	13594.752930
712.694763	13789.341797
712.643372	13629.340820
712.592041	13585.086914
712.540649	13545.770508
712.489258	13614.736328
712.437866	13585.267578
712.386536	13602.545898
712.335144	13282.886719
712.283752	13297.751953
712.232361	13354.404297
712.181030	13379.083008
712.129578	13207.143555
712.078186	13276.066406
712.026855	13362.162109
711.975403	13178.033203
711.924011	12993.969727
711.872681	12778.049805
711.821228	12810.161133
711.769836	12748.986328
711.718445	12727.098633
711.667053	12798.458984
711.615662	12661.266602
711.564209	12649.215820
711.512878	12593.025391
711.461487	12237.716797
711.410034	12448.833984
711.358643	12532.419922
711.307190	12265.532227
711.255798	12282.963867
711.204407	12239.144531
711.153015	12325.155273
711.101562	12264.200195
711.050110	12164.090820
710.998718	11929.373047
710.947327	11844.042969
710.895874	11885.996094
710.844421	11957.294922
710.793030	11977.195312
710.741577	11691.351562
710.690125	11958.282227
710.638733	11606.527344
710.587280	11795.150391
710.535828	11700.184570
710.484375	11654.125977
710.432922	11639.845703
710.381531	11474.113281
710.330078	11286.456055
710.278625	11294.225586
710.227173	11218.978516
710.175720	11175.492188
710.124268	11319.955078
710.072815	11181.294922
710.021362	11045.123047
709.969910	11138.303711
709.918518	11141.208008
709.867004	11029.500000
709.815552	10852.001953
709.764099	10915.896484
709.712646	10853.031250
709.661194	10485.586914
709.609680	10819.948242
709.558228	10632.899414
709.506714	10850.210938
709.455261	10378.317383
709.403809	10787.933594
709.352356	10459.835938
709.300842	10392.269531
709.249390	10183.591797
709.197876	10556.457031
709.146423	10231.063477
709.094910	10508.936523
709.043457	10266.341797
708.991943	10206.172852
708.940491	10116.854492
708.888977	9983.822266
708.837524	10045.229492
708.786011	10007.005859
708.734558	9993.084961
708.683044	9865.024414
708.631531	9763.719727
708.580017	9820.252930
708.528503	9665.589844
708.476990	9496.419922
708.425476	9654.880859
708.373962	9604.647461
708.322510	9530.174805
708.270996	9535.758789
708.219482	9543.765625
708.167969	9527.526367
708.116455	9382.826172
708.064880	9201.826172
708.013428	9347.997070
707.961914	9217.940430
707.910400	9196.926758
707.858826	9238.884766
707.807312	9321.990234
707.755798	9235.604492
707.704224	9047.590820
707.652771	9179.084961
707.601196	9008.083984
707.549683	9018.580078
707.498169	8905.717773
707.446594	8892.043945
707.395081	8851.779297
707.343506	8922.729492
707.291992	8788.209961
707.240417	8694.819336
707.188904	8669.113281
707.137329	8457.405273
707.085815	8422.088867
707.034302	8618.610352
706.982727	8477.042969
706.931152	8625.204102
706.879578	8396.795898
706.828003	8530.439453
706.776489	8379.334961
706.724976	8192.100586
706.673340	8171.349121
706.621826	8271.176758
706.570251	8161.211426
706.518677	8162.170898
706.467102	8177.590820
706.415527	8070.109863
706.363953	8025.307617
706.312378	8233.451172
706.260803	7894.807617
706.209229	8021.027344
706.157654	7940.150879
706.106079	8025.395508
706.054504	7634.081543
706.002930	7784.319336
705.951355	7883.980469
705.899780	7779.144531
705.848206	7741.685547
705.796631	7723.476074
705.744995	7654.786133
705.693420	7672.653809
705.641785	7603.996582
705.590210	7588.226074
705.538635	7627.717285
705.487000	7575.917480
705.435425	7483.309082
705.383850	7335.507324
705.332214	7444.634766
705.280579	7347.297852
705.229004	7233.196289
705.177368	7385.472656
705.125793	7420.142578
705.074158	7272.507812
705.022583	7160.897949
704.970947	7133.247559
704.919312	7105.606934
704.867676	7008.466797
704.816101	6839.466797
704.764465	7164.107910
704.712830	6748.393555
704.661194	7065.749023
704.609619	6975.885254
704.557983	6898.024414
704.506348	7016.489746
704.454712	6953.009766
704.403076	6906.303223
704.351440	6637.100098
704.299805	6769.879883
704.248169	6582.116699
704.196533	6700.510254
704.144897	6665.843262
704.093262	6592.940918
704.041626	6539.184570
703.989929	6698.124023
703.938293	6620.475586
703.886658	6401.916504
703.835022	6412.717285
703.783386	6607.383301
703.731689	6374.618164
703.680054	6309.030762
703.628418	6463.037598
703.576721	6275.759766
703.525085	6346.214355
703.473389	6247.282715
703.421753	6281.942383
703.370056	6283.206543
703.318420	6203.410645
703.266785	6013.994141
703.215088	6196.431152
703.163391	6104.778809
703.111755	6175.161133
703.060059	6038.287109
703.008423	6025.302246
702.956726	6048.038086
702.905029	6023.151855
702.853394	5798.332031
702.801636	5961.506348
702.750000	5893.818359
702.698303	5880.871582
702.646606	5779.921875
702.594910	5824.074707
702.543213	5856.323242
702.491516	5833.882324
702.439819	5713.997070
702.388123	5644.059570
702.336426	5681.068359
702.284729	5651.546875
702.233032	5508.026855
702.181335	5609.157715
702.129639	5598.658691
702.077942	5507.450195
702.026184	5534.948242
701.974548	5386.830566
701.922791	5492.636230
701.871094	5401.511230
701.819336	5355.482422
701.767639	5337.926270
701.715942	5332.230469
701.664246	5331.277832
701.612488	5218.931152
701.560791	5331.742188
701.509033	5271.558105
701.457336	5121.380859
701.405579	5293.357910
701.353882	5117.182129
701.302124	5099.694824
701.250427	5183.999512
701.198669	5140.472168
701.146912	4966.814941
701.095215	5114.975586
701.043518	4957.942383
700.991699	5070.576660
700.940002	4958.534180
700.888245	4872.537598
700.836487	4966.215820
700.784729	4967.690918
700.733032	4775.408203
700.681274	4892.677246
700.629517	4783.147949
700.577759	4836.609863
700.526001	4771.991699
700.474243	4674.346191
700.422485	4732.518555
700.370728	4719.872070
700.318970	4648.242188
700.267212	4671.001465
700.215393	4580.536133
700.163635	4570.283203
700.111938	4425.638184
700.060120	4608.723145
700.008362	4581.971680
699.956604	4581.151367
699.904785	4731.124023
699.853027	4468.792480
699.801270	4545.717285
699.749512	4514.290039
699.697754	4548.798340
699.645935	4324.351074
699.594116	4384.770508
699.542358	4518.116699
699.490601	4350.261230
699.438782	4337.720703
699.387024	4296.960938
699.335205	4298.542480
699.283386	4234.293457
699.231628	4395.730469
699.179810	4258.628906
699.127991	4314.261719
699.076233	4285.295898
699.024414	4183.521973
698.972656	4333.080078
698.920837	4130.364258
698.869019	4167.187012
698.817200	4117.147461
698.765381	4071.818848
698.713623	4042.931641
698.661804	4044.552979
698.609985	4074.320801
698.558167	3968.056885
698.506348	4103.341797
698.454529	3987.733154
698.402710	4031.552734
698.350891	4040.203857
698.299011	3980.902344
698.247192	3877.111084
698.195374	3881.100342
698.143555	3833.567627
698.091736	3968.681641
698.039917	4007.766357
697.988037	3747.244873
697.936279	3851.879150
697.884399	3729.522217
697.832581	3787.335693
697.780762	3931.667236
697.728882	3804.684570
697.677063	3785.297363
697.625183	3716.826904
697.573364	3596.962402
697.521484	3808.964600
697.469666	3756.880859
697.417786	3480.564453
697.365906	3650.433350
697.314087	3598.405518
697.262207	3560.404541
697.210388	3538.756836
697.158508	3547.456787
697.106689	3532.819336
697.054810	3539.184082
697.002930	3550.211426
696.951050	3493.601562
696.899231	3451.002686
696.847351	3357.129150
696.795471	3417.130127
696.743591	3516.728027
696.691711	3448.523682
696.639893	3517.794189
696.587952	3314.517822
696.536072	3367.485352
696.484192	3355.238281
696.432373	3284.795654
696.380432	3298.170898
696.328613	3255.689453
696.276672	3350.500488
696.224792	3224.277100
696.172913	3112.054443
696.121033	3283.580566
696.069092	3245.789307
696.017273	3233.582764
695.965332	3263.216309
695.913452	3199.886719
695.861572	3196.988037
695.809631	3131.369873
695.757690	3156.354980
695.705811	3120.955322
695.653931	3087.889893
695.602051	3066.442871
695.550110	3079.816650
695.498169	3011.969238
695.446289	3127.429932
695.394348	3122.228027
695.342468	3021.940186
695.290527	2988.933350
695.238647	2972.166748
695.186707	2966.996094
695.134766	2998.907959
695.082886	2928.854248
695.030945	2946.861084
694.979004	2881.474365
694.927063	2853.165283
694.875183	2945.270264
694.823242	2866.028564
694.771301	2833.107666
694.719360	2841.854492
694.667419	2758.046387
694.615479	2900.979248
694.563599	2780.182861
694.511597	2853.683838
694.459656	2675.135986
694.407715	2769.434570
694.355774	2764.313232
694.303833	2724.530273
694.251892	2876.530273
694.199951	2705.068604
694.148010	2623.744141
694.096008	2757.206055
694.044067	2652.813232
693.992126	2682.344482
693.940186	2723.404541
693.888245	2722.913818
693.836304	2648.594727
693.784302	2601.983154
693.732361	2601.514160
693.680359	2584.904053
693.628418	2577.521729
693.576416	2664.649658
693.524475	2521.281250
693.472473	2615.300293
693.420532	2584.879150
693.368530	2545.255371
693.316589	2459.586182
693.264587	2532.824707
693.212585	2520.857422
693.160583	2481.273193
693.108643	2510.742920
693.056641	2484.980225
693.004700	2514.438477
692.952698	2525.485352
692.900696	2534.228516
692.848755	2379.721680
692.796753	2335.614502
692.744690	2482.291992
692.692749	2346.261963
692.640747	2368.814453
692.588745	2299.471924
692.536743	2365.663086
692.484741	2319.309326
692.432739	2417.615723
692.380737	2277.152832
692.328735	2336.414551
692.276733	2361.234375
692.224731	2342.454102
692.172668	2252.570557
692.120667	2350.782227
692.068665	2325.134521
692.016663	2168.816650
691.964661	2239.483398
691.912598	2250.537842
691.860596	2270.753906
691.808594	2176.414307
691.756531	2107.304932
691.704529	2184.788818
691.652466	2168.366211
691.600464	2147.370850
691.548462	2140.116211
691.496460	2153.460449
691.444397	2134.766846
691.392334	2191.572510
691.340332	2113.410400
691.288269	2110.741699
691.236267	2078.350586
691.184204	2135.125000
691.132141	2153.023682
691.080078	2104.645996
691.028076	2104.265625
690.976013	2044.492188
690.923950	1996.159912
690.871948	2089.423584
690.819885	2018.269409
690.767822	1999.642944
690.715759	2015.257446
690.663696	2030.866089
690.611633	1964.336548
690.559570	1991.353882
690.507507	1970.468140
690.455444	1951.869995
690.403381	1994.833252
690.351318	1942.046387
690.299255	1980.437744
690.247192	1929.950928
690.195129	1963.774170
690.143005	1881.420044
690.091003	1908.407593
690.038879	1912.616211
689.986816	1837.145264
689.934753	1873.230347
689.882629	1838.756104
689.830566	1849.799683
689.778503	1858.564331
689.726440	1849.130127
689.674316	1805.588623
689.622253	1782.525513
689.570129	1802.661743
689.518066	1779.607300
689.465942	1795.191895
689.413879	1749.427246
689.361816	1835.430176
689.309692	1746.522583
689.257568	1814.328735
689.205505	1739.078979
689.153381	1663.856445
689.101257	1720.292969
689.049194	1699.559448
688.997070	1633.459473
688.944946	1726.163086
688.892822	1762.136353
688.840759	1718.735352
688.788635	1713.889771
688.736511	1727.179077
688.684387	1536.502930
688.632263	1710.692505
688.580139	1606.173706
688.528015	1703.277466
688.475952	1582.945679
688.423767	1636.999023
688.371643	1620.855835
688.319580	1661.302490
688.267395	1611.216431
688.215271	1567.936157
688.163147	1588.010986
688.111023	1592.246582
688.058899	1619.093506
688.006775	1541.929443
687.954590	1530.347412
687.902466	1480.348267
687.850281	1529.792358
687.798218	1421.070679
687.746033	1547.308105
687.693909	1501.858765
687.641785	1537.714722
687.589600	1544.208618
687.537476	1449.125732
687.485291	1539.134644
687.433167	1477.932983
687.380981	1534.064209
687.328796	1450.329834
687.276672	1479.383667
687.224548	1517.445801
687.172363	1399.944702
687.120239	1417.722046
687.068054	1426.478760
687.015869	1448.750977
686.963745	1462.004150
686.911560	1475.252441
686.859375	1400.672363
686.807190	1402.669556
686.755005	1395.661621
686.702820	1332.389771
686.650635	1266.890503
686.598511	1334.155640
686.546265	1374.403076
686.494141	1326.923950
686.441956	1324.434204
686.389771	1272.484863
686.337585	1357.670044
686.285400	1265.280396
686.233215	1348.188843
686.181030	1305.258911
686.128845	1264.590820
686.076599	1316.013306
686.024414	1351.699707
685.972229	1295.330566
685.920044	1337.741211
685.867859	1261.197876
685.815674	1238.531372
685.763428	1267.469238
685.711243	1233.595337
685.658997	1237.856079
685.606812	1253.325562
685.554565	1300.172852
685.502380	1250.628540
685.450195	1304.181763
685.397949	1218.807251
685.345764	1243.226074
685.293518	1227.322510
685.241272	1204.706909
685.189148	1229.114868
685.136841	1284.851685
685.084656	1166.003418
685.032471	1181.454468
684.980225	1174.527954
684.927979	1207.866089
684.875732	1209.882568
684.823547	1131.403320
684.771301	1140.139648
684.719055	1209.222168
684.666809	1128.550903
684.614563	1177.501099
684.562378	1123.672241
684.510071	1130.168213
684.457825	1172.391846
684.405579	1154.316650
684.353394	1131.783325
684.301147	1124.881470
684.248901	1117.982178
684.196594	1091.005371
684.144348	1130.959106
684.092102	1097.298950
684.039917	1090.409424
683.987610	1099.128662
683.935364	1045.430908
683.883118	1056.383789
683.830872	1051.734741
683.778564	1044.859619
683.726379	1102.582642
683.674072	1064.522217
683.621765	1044.288574
683.569519	1057.455566
683.517273	1052.811157
683.465027	1068.197144
683.412720	1050.202393
683.360474	1043.337158
683.308167	1016.456665
683.255920	1036.285522
683.203613	1022.756226
683.151367	969.218262
683.099060	1000.157593
683.046753	991.086548
682.994507	1044.228027
682.942200	935.191162
682.889954	981.660583
682.837646	1017.010254
682.785339	1007.944214
682.733032	925.630127
682.680786	936.557922
682.628418	958.576294
682.576172	900.719849
682.523865	1009.243225
682.471558	918.132874
682.419250	960.094177
682.366943	920.014709
682.314636	888.815857
682.262329	932.975525
682.210022	872.981628
682.157715	923.773804
682.105408	954.613525
682.053162	883.575989
682.000793	980.833862
681.948486	943.022461
681.896179	951.703308
681.843872	911.698059
681.791504	823.033386
681.739258	904.728943
681.686890	942.161743
681.634583	884.497314
681.582214	873.281555
681.529907	864.280334
681.477600	872.962585
681.425232	901.528259
681.372925	859.388306
681.320618	821.681335
681.268250	872.324768
681.215881	876.581421
681.163574	858.760376
681.111206	887.297119
681.058899	803.276428
681.006531	847.257568
680.954224	833.866760
680.901855	816.069580
680.849548	837.972290
680.797180	848.843018
680.744812	815.622070
680.692505	793.433167
680.640137	868.209717
680.587769	815.174805
680.535400	830.445129
680.483032	799.460083
680.430664	781.698120
680.378357	779.353577
680.325989	743.992432
680.273621	768.064697
680.221252	776.725647
680.168884	703.985046
680.116516	776.441467
680.064148	789.494263
680.011780	745.374878
679.959412	716.660034
679.907043	764.883606
679.854675	685.632202
679.802307	740.435181
679.749878	707.348633
679.697510	731.378784
679.645142	667.562927
679.592712	698.178101
679.540344	735.367432
679.487976	715.480286
679.435608	768.013062
679.383179	662.564209
679.330811	743.603088
679.278442	750.046265
679.226013	774.028809
679.173645	670.848267
679.121216	723.331299
679.068848	681.560059
679.016479	659.524109
678.964050	709.789612
678.911621	696.517700
678.859192	705.149719
678.806824	674.367432
678.754395	715.836853
678.702026	691.629944
678.649597	678.373413
678.597168	693.564331
678.544800	632.187256
678.492371	680.187561
678.439941	660.382568
678.387512	649.330078
678.335083	642.653320
678.282715	684.059937
678.230286	692.674866
678.177856	627.007019
678.125366	661.840759
678.072998	672.638855
678.020569	624.478699
677.968140	587.251587
677.915710	646.076538
677.863281	600.129944
677.810852	641.475769
677.758362	597.728271
677.705933	601.980774
677.653503	638.942078
677.601074	662.808044
677.548645	632.167969
677.496216	614.616028
677.443726	621.040527
677.391296	594.782288
677.338867	631.704041
677.286377	544.472473
677.233948	542.195068
677.181519	574.751892
677.129089	620.356873
677.076599	635.476990
677.024109	578.787170
676.971680	602.611328
676.919189	582.924805
676.866760	582.817749
676.814270	560.967773
676.761841	526.082458
676.709351	558.588257
676.656860	517.196838
676.604431	558.383057
676.551941	547.419006
676.499451	503.880463
676.447021	536.360413
676.394531	529.748535
676.342041	540.504700
676.289551	557.767822
676.237122	535.966248
676.184631	509.833710
676.132141	550.953003
676.079651	548.683044
676.027161	533.404053
675.974670	535.473877
675.922180	548.380554
675.869690	511.438782
675.817200	537.345337
675.764709	576.240234
675.712219	502.493042
675.659729	474.248871
675.607178	534.785095
675.554749	545.510315
675.502197	556.231628
675.449707	521.506470
675.397217	484.630554
675.344727	510.498993
675.292175	488.777740
675.239685	495.174805
675.187195	510.217285
675.134705	469.054138
675.082153	475.451263
675.029663	512.096436
674.977173	479.596954
674.924622	507.588043
674.872131	501.015961
674.819580	483.650513
674.767090	479.243958
674.714539	457.572144
674.662048	479.067535
674.609497	448.773407
674.556946	476.733948
674.504456	474.489410
674.451904	461.463806
674.399414	495.874420
674.346863	485.005219
674.294312	515.088440
674.241760	489.136139
674.189209	476.119690
674.136658	488.955933
674.084167	435.026001
674.031616	460.784241
673.979065	458.546539
673.926514	424.023560
673.873962	428.249451
673.821411	443.231812
673.768860	406.579498
673.716309	432.314362
673.663757	438.685944
673.611206	438.605072
673.558655	438.524231
673.506104	442.741852
673.453552	461.999756
673.401001	436.133301
673.348450	414.572449
673.295898	369.395386
673.243286	405.830566
673.190674	435.811707
673.138184	437.877777
673.085571	444.235199
673.033020	405.531250
672.980469	386.148987
672.927856	416.106018
672.875305	405.306854
672.822754	435.249268
672.770142	381.576721
672.717590	422.228912
672.664978	385.721710
672.612427	404.933075
672.559814	409.142548
672.507263	398.358490
672.454651	417.556793
672.402039	359.674835
672.349487	421.683716
672.296875	387.363770
672.244263	376.593567
672.191650	404.335480
672.139099	350.787170
672.086487	376.385010
672.033875	359.210236
671.981262	386.934814
671.928650	378.313873
671.876099	393.202820
671.823486	380.310730
671.770874	335.380646
671.718262	388.713379
671.665649	373.693817
671.613037	380.029755
671.560425	371.421143
671.507812	375.620911
671.455200	377.685333
671.402588	379.748932
671.349915	366.880615
671.297363	388.139130
671.244751	366.744995
671.192078	347.490601
671.139465	383.661011
671.086853	364.410583
671.034241	389.911163
670.981628	351.494232
670.929016	366.338379
670.876343	376.918030
670.823730	289.555786
670.771057	340.590851
670.718445	334.142975
670.665833	348.976501
670.613159	359.549500
670.560486	316.940643
670.507874	310.501831
670.455200	340.213013
670.402588	342.276001
670.349915	323.082794
670.297302	323.023010
670.244690	344.210815
670.191956	316.530365
670.139343	329.215607
670.086670	293.053833
670.033997	348.202423
669.981384	329.032837
669.928711	318.359924
669.876038	309.812958
669.823364	328.850128
669.770752	322.425568
669.718079	362.661591
669.665405	332.908356
669.612732	315.886353
669.560059	326.426117
669.507385	300.934570
669.454773	315.710876
669.402039	311.415436
669.349365	290.176971
669.296692	285.887817
669.244019	319.711578
669.191345	309.067841
669.138672	296.311493
669.085999	266.630920
669.033325	315.243225
668.980591	266.532104
668.927979	304.551666
668.875244	279.120636
668.822571	321.352051
668.769897	279.017151
668.717163	310.666046
668.664490	291.591614
668.611755	291.537537
668.559082	261.912689
668.506409	299.876678
668.453674	280.818329
668.401001	242.767807
668.348267	320.816193
668.295593	286.992828
668.242920	276.390350
668.190186	259.463409
668.137512	276.287811
668.084778	272.019196
668.032043	236.127884
667.979370	274.026154
667.926636	255.007797
667.873901	273.924469
667.821167	242.272827
667.768494	292.779785
667.715759	261.136353
667.663025	256.876801
667.610291	233.672379
667.557617	273.619568
667.504883	260.942505
667.452148	271.413971
667.399414	269.259979
667.346680	243.971558
667.293945	256.543121
667.241211	273.314850
667.188477	220.713318
667.135742	243.790375
667.083008	252.150101
667.030273	243.699814
666.977539	233.152191
666.924805	273.010406
666.872070	262.461212
666.819336	237.220871
666.766541	283.352783
666.713806	262.314941
666.661072	241.284912
666.608276	260.119720
666.555603	220.221725
666.502808	241.150391
666.450073	295.616394
666.397278	234.772202
666.344543	215.866440
666.291809	211.635513
666.239014	251.401382
666.186279	207.367569
666.133484	255.496353
666.080750	211.478149
666.027954	249.120972
665.975220	209.306427
665.922424	236.472275
665.869690	223.874573
665.816895	198.730164
665.764099	215.425247
665.711365	202.838470
665.658569	225.798752
665.605774	215.305038
665.552979	227.804672
665.500244	259.105713
665.447449	248.611633
665.394653	219.322372
665.341858	175.425247
665.289124	233.856781
665.236328	210.849457
665.183533	212.897430
665.130737	212.857788
665.077942	237.855591
665.025146	223.208862
664.972351	202.310532
664.919556	206.443436
664.866760	183.471100
664.813904	189.690460
664.761169	189.655136
664.708313	202.122208
664.655518	204.167908
664.602722	177.051422
664.549927	197.844131
664.497131	233.204361
664.444336	191.525024
664.391541	176.919495
664.338684	172.724503
664.285889	210.143646
664.233032	187.221817
664.180237	189.266785
664.127441	187.152039
664.074585	185.038071
664.021790	178.767502
663.968933	189.125687
663.916138	180.778763
663.863342	191.132706
663.810486	189.019913
663.757690	184.831161
663.704834	193.102158
663.651978	178.534286
663.599182	155.669464
663.546326	190.918930
663.493469	207.481857
663.440674	230.261902
663.387817	165.923569
663.334961	170.039917
663.282104	190.740906
663.229248	192.778198
663.176453	167.872253
663.123596	149.191940
663.070740	174.024780
663.017883	180.206299
662.965088	180.172668
662.912170	184.280167
662.859375	159.403641
662.806519	163.513458
662.753662	142.788879
662.700745	177.935532
662.647949	165.490509
662.595093	153.050140
662.542236	144.750122
662.489319	186.072540
662.436462	181.903610
662.383606	159.135925
662.330750	161.172516
662.277893	181.801697
662.225037	154.915680
662.172119	196.189865
662.119263	189.958893
662.066406	161.022018
662.013550	171.311920
661.960632	150.643768
661.907715	165.058212
661.854858	119.644836
661.802002	179.433716
661.749084	138.158752
661.696228	152.564713
661.643372	140.168396
661.590454	142.203110
661.537537	152.479156
661.484619	158.631088
661.431824	135.944077
661.378845	156.512390
661.325989	164.719070
661.273071	156.453842
661.220215	142.017059
661.167297	164.626648
661.114380	133.734131
661.061523	158.393875
661.008606	170.704315
660.955688	135.715378
660.902771	143.913620
660.849854	123.331444
660.796997	129.473785
660.744080	141.778076
660.691162	147.914658
660.638184	147.886963
660.585327	90.358452
660.532410	156.044464
660.479492	151.909592
660.426514	129.304230
660.373657	155.956833
660.320740	147.720917
660.267761	164.103622
660.214844	141.512863
660.161926	143.536880
660.109009	145.560150
660.056091	125.035294
660.003174	147.554993
659.950195	131.135422
659.897278	139.305283
659.844360	155.664963
659.791443	129.013885
659.738464	139.226990
659.685547	128.965546
659.632629	120.754616
659.579651	116.639374
659.526733	118.663437
659.473755	135.005493
659.420837	120.664108
659.367920	136.999649
659.314941	100.174995
659.261963	130.816284
659.209045	132.835373
659.156067	120.551033
659.103088	140.956970
659.050171	134.803131
658.997192	134.777847
658.944214	116.377213
658.891296	138.809937
658.838318	122.456375
658.785339	136.717300
658.732422	122.410431
658.679443	128.506836
658.626465	95.852188
658.573486	99.912254
658.520508	99.893509
658.467529	132.486923
658.414551	110.045403
658.361633	110.024750
658.308655	122.226776
658.255676	109.983444
658.202698	114.035492
658.149719	128.265839
658.096741	124.170593
658.043701	113.971275
657.990723	97.671318
657.937744	105.790726
657.884766	107.804909
657.831787	93.548950
657.778809	109.797707
657.725769	124.007446
657.672791	93.496246
657.619812	103.639404
657.566833	99.556412
657.513855	113.757378
657.460815	97.487999
657.407837	113.714630
657.354797	119.783966
657.301819	85.253914
657.248840	113.650528
657.195801	89.280060
657.142822	95.349403
657.089783	91.274826
657.036804	117.620987
656.983765	103.405907
656.930725	105.413651
656.877747	99.313416
656.824707	93.215469
656.771729	103.328148
656.718689	133.693634
656.665710	89.112328
656.612671	107.319656
656.559631	105.274948
656.506653	99.182732
656.453613	74.878990
656.400574	87.005157
656.347534	99.126762
656.294495	88.995033
656.241455	91.000519
656.188477	107.158218
656.135376	121.288361
656.082397	109.138977
656.029358	88.911316
655.976318	86.874252
655.923218	90.897797
655.870239	109.056824
655.817139	94.901955
655.764099	82.771225
655.711060	94.866219
655.658020	92.830307
655.604980	84.742142
655.551941	112.968239
655.498901	123.031509
655.445801	106.876099
655.392822	114.920563
655.339722	90.709671
655.286621	100.769531
655.233582	70.525383
655.180542	96.702301
655.127502	94.669823
655.074402	88.610367
655.021362	68.458740
654.968323	74.485176
654.915222	96.611206
654.862183	80.494164
654.809082	90.538864
654.756042	84.487007
654.702942	86.482292
654.649902	84.455154
654.596802	92.481056
654.543701	84.423302
654.490662	90.436485
654.437561	102.475349
654.384460	94.420258
654.331421	94.402443
654.278320	70.286430
654.225220	86.335609
654.172119	112.415863
654.119080	82.288940
654.065979	92.306755
654.012878	82.257889
653.959778	64.189163
653.906738	96.265579
653.853577	80.206177
653.800476	92.219688
653.747437	100.219872
653.694336	96.192917
653.641235	84.152908
653.588135	90.146812
653.535034	88.126907
653.481934	84.105255
653.428833	72.076607
653.375732	56.048992
653.322571	92.063103
653.269470	78.038757
653.216370	70.021553
653.163269	78.009277
653.110168	89.993698
653.057007	77.979805
653.003906	75.965965
652.950806	79.949066
652.897644	61.948818
652.844543	77.920883
652.791443	81.901344
652.738281	77.891434
652.685181	101.838776
652.632080	69.876144
652.578918	53.894268
652.525818	79.828262
652.472656	91.785149
652.419556	85.782936
652.366394	93.745018
652.313293	83.756302
652.260132	81.746643
652.206970	99.672173
652.153870	77.729591
652.100708	89.671028
652.047607	65.746315
651.994385	67.725815
651.941284	75.679237
651.888184	73.673737
651.835022	61.714962
651.781860	67.674568
651.728699	53.731403
651.675537	93.514740
651.622375	65.646858
651.569214	71.601204
651.516052	93.461655
651.462952	73.562263
651.409790	71.560547
651.356628	71.546997
651.303467	65.572334
651.250244	59.599922
651.197144	77.465233
651.143982	53.619617
651.090820	71.479286
651.037598	73.450905
650.984497	65.497864
650.931274	45.641376
650.878113	73.409180
650.824951	57.526020
650.771790	81.314484
650.718567	91.213600
650.665405	65.423447
650.612244	65.411049
650.559082	71.343987
650.505859	67.367661
650.452698	73.297966
650.399475	59.419521
650.346313	63.368809
650.293152	69.296494
650.239929	87.099075
650.186768	73.228516
650.133545	67.278313
650.080322	59.351959
650.027161	77.142914
649.973999	75.150642
649.920776	75.136383
649.867615	59.306950
649.814392	83.013977
649.761169	53.356007
649.707947	81.006714
649.654785	65.188156
649.601562	79.000954
649.548340	77.011314
649.495117	76.996704
649.441895	63.164791
649.388733	65.126328
649.335510	78.926018
649.282288	72.992714
649.229065	57.199646
649.175842	29.580406
649.122620	65.064537
649.069397	67.023468
649.016235	41.388985
648.963013	51.233776
648.909790	65.015137
648.856506	76.821480
648.803345	59.082222
648.750122	68.916168
648.696838	61.028439
648.643616	41.333992
648.590393	49.197784
648.537170	84.604118
648.483887	68.850731
648.430664	51.136539
648.377441	53.093239
648.324219	55.049191
648.270935	55.038727
648.217712	43.236496
648.164490	53.052887
648.111206	76.617378
648.057983	51.068542
648.004761	54.986439
647.951477	68.719978
647.898254	56.928585
647.844971	54.955078
647.791748	54.944630
647.738464	52.972244
647.685242	60.808414
647.631958	56.874474
647.578735	50.981209
647.525452	60.773724
647.472168	60.762161
647.418945	78.387871
647.365662	41.145802
647.312378	66.604340
647.259155	62.674507
647.205872	76.370018
647.152588	46.987991
647.099304	46.979050
647.046082	46.970104
646.992798	29.350729
646.939514	80.210052
646.886292	62.591049
646.833008	50.845543
646.779724	39.104511
646.726379	46.916477
646.673157	56.679947
646.619873	46.898609
646.566589	54.704624
646.513306	78.134575
646.460022	42.965832
646.406677	39.052406
646.353394	52.710705
646.300110	56.604416
646.246826	52.690620
646.193542	54.631714
646.140259	48.769020
646.086975	79.965950
646.033691	70.200623
645.980347	72.136887
645.927063	42.884029
645.873718	38.978050
645.820435	48.713272
645.767151	42.859509
645.713867	54.538063
645.660522	66.212166
645.607239	54.517269
645.553894	52.560196
645.500610	73.959503
645.447266	46.702358
645.393982	58.366810
645.340698	48.629730
645.287354	48.620453
645.234009	40.833389
645.180725	58.322285
645.127380	73.860802
645.074097	46.640022
645.020752	60.231869
644.967407	48.564816
644.914062	46.613327
644.860779	52.429985
644.807434	58.244419
644.754089	48.527748
644.700745	65.985138
644.647400	54.330330
644.594116	46.559963
644.540771	44.611443
644.487427	73.691788
644.434082	75.616600
644.380737	50.401440
644.327454	62.020695
644.274048	60.071072
644.220703	52.309971
644.167419	73.607376
644.114014	58.099983
644.060669	54.216293
644.007324	44.526302
643.953979	56.131130
643.900635	61.925964
643.847290	61.914127
643.793945	30.951147
643.740601	52.220078
643.687195	32.873024
643.633850	44.466766
643.580505	54.123104
643.527161	46.382362
643.473755	61.831326
643.420410	46.364628
643.367004	46.355762
643.313660	59.864738
643.260315	38.615025
643.206970	71.424133
643.153564	63.690422
643.100159	55.959663
643.046814	44.373310
642.993469	32.791389
642.940063	44.356335
642.886658	40.491512
642.833313	26.989176
642.779968	50.113163
642.726562	38.541210
642.673157	55.874058
642.619812	52.010715
642.566406	42.370991
642.513000	53.916393
642.459595	57.756504
642.406189	40.421810
642.352844	67.356789
642.299438	36.558109
642.246033	53.864792
642.192627	38.467484
642.139221	28.845087
642.085876	24.994287
642.032471	38.445385
641.979065	32.672318
641.925659	63.410580
641.872253	44.186787
641.818848	32.653542
641.765442	32.647282
641.712036	42.241329
641.658630	55.671082
641.605225	11.515947
641.551819	42.217045
641.498352	42.208954
641.444946	47.955524
641.391602	36.439213
641.338135	42.184681
641.284729	38.342358
641.231323	26.834505
641.177856	49.825951
641.124451	57.480457
641.071045	57.469433
641.017639	55.543129
640.964233	26.808781
640.910767	65.094551
640.857361	55.511173
640.803955	30.620977
640.750488	49.749542
640.697021	59.305378
640.643616	38.254192
640.590210	34.422165
640.536743	55.447292
640.483276	34.408955
640.429871	49.692284
640.376404	43.950119
640.322937	55.404732
640.269531	78.315788
640.216064	43.924812
640.162659	34.369339
640.109192	26.726574
640.055786	49.625534
640.002258	57.249237
639.948853	40.066769
639.895386	45.781796
639.841919	41.958588
639.788452	38.136841
639.735046	43.848942
639.681580	40.028297
639.628113	45.737839
639.574646	19.053770
639.521179	20.955120
639.467712	47.616119
639.414246	26.659901
639.360779	34.270428
639.307312	57.106400
639.253845	55.192242
639.200378	53.278816
639.146912	51.366123
639.093445	36.139580
639.039978	53.248089
638.986511	45.632442
638.933044	28.514791
638.879517	41.813652
638.826050	28.503824
638.772583	39.897678
638.719116	28.492859
638.665588	39.882328
638.612122	56.963795
638.558594	39.866982
638.505127	49.349625
638.451660	41.749340
638.398193	41.741302
638.344666	28.454502
638.291199	39.828636
638.237732	53.094627
638.184204	34.125690
638.130676	47.387665
638.077209	47.378544
638.023682	45.474644
637.970154	26.521767
637.916687	43.563084
637.863220	43.554695
637.809692	47.332943
637.756165	35.966106
637.702698	52.992474
637.649170	34.060028
637.595642	24.594172
637.542175	47.287369
637.488586	28.366955
637.435120	41.596851
637.381592	49.150444
637.328064	37.800747
637.274597	43.462479
637.221069	45.343410
637.167542	54.779396
637.114014	28.328709
637.060486	49.093628
637.006958	35.869198
636.953430	39.637257
636.899902	37.742489
636.846375	39.621971
636.792847	62.251091
636.739319	47.150822
636.685791	39.599052
636.632263	33.935497
636.578735	22.619301
636.525146	50.883610
636.471619	41.452721
636.418091	30.141617
636.364502	39.553238
636.310974	28.246861
636.257446	28.241409
636.203918	52.707123
636.150391	41.404747
636.096802	28.225060
636.043274	54.557915
635.989746	33.856998
635.936157	50.775692
635.882629	30.083488
635.829102	24.438114
635.775513	45.107807
635.721924	52.615612
635.668396	43.211620
635.614868	22.540838
635.561279	33.804729
635.507690	50.697296
635.454163	41.300930
635.400574	18.769522
635.347046	31.902023
635.293457	31.895859
635.239868	37.517288
635.186340	24.381525
635.132751	31.877371
635.079163	26.246880
635.025635	33.739464
634.971985	41.229153
634.918457	35.600113
634.864868	31.846573
634.811279	29.967449
634.757690	54.305500
634.704102	41.189308
634.650513	29.950069
634.596985	33.687309
634.543335	24.325020
634.489746	33.674282
634.436218	33.667767
634.382629	43.011600
634.329041	48.612404
634.275452	50.472347
634.221863	22.427813
634.168213	46.715569
634.114624	37.365223
634.061035	37.357990
634.007446	18.675381
633.953796	26.140472
633.900269	44.803562
633.846680	31.729713
633.793030	44.786217
633.739441	24.254505
633.685852	33.576656
633.632263	31.705147
633.578613	35.428303
633.524963	20.507151
633.471375	16.775328
633.417786	33.544155
633.364136	40.990471
633.310547	35.394005
633.256897	31.662184
633.203308	35.380291
633.149658	46.543995
633.096069	39.089378
633.042419	29.776611
632.988831	39.074230
632.935181	42.787289
632.881531	29.759302
632.827942	26.034342
632.774292	40.903175
632.720642	24.165373
632.667053	24.160688
632.613403	33.446774
632.559814	39.013668
632.506165	35.291237
632.452515	24.141953
632.398865	40.847687
632.345215	27.845295
632.291565	31.551878
632.237915	25.978859
632.184326	27.829092
632.130615	29.678606
632.076965	50.072929
632.023376	27.812895
631.969727	37.076664
631.916077	51.897255
631.862427	16.678022
631.808777	31.496819
631.755127	14.819155
631.701477	31.484591
631.647827	35.181828
631.594177	31.472366
631.540466	16.658606
631.486816	20.356564
631.433167	33.304272
631.379517	38.847439
631.325806	31.441818
631.272156	42.530666
631.218506	25.883204
631.164856	38.817265
631.111145	40.657803
631.057495	20.324951
631.003845	27.710459
630.950134	31.399084
630.896484	33.239628
630.842834	31.386881
630.789124	31.380779
630.735413	38.756958
630.681763	46.130268
630.628052	33.207336
630.574402	40.578854
630.520691	22.129616
630.467041	35.031746
630.413330	7.373670
630.359680	51.605652
630.305969	29.483210
630.252258	47.900894
630.198608	60.785465
630.144897	25.782757
630.091187	34.984077
630.037476	51.545452
629.983826	31.289364
629.930115	29.443083
629.876404	42.316196
629.822693	38.629005
629.768982	27.586777
629.715271	29.420168
629.661560	23.899235
629.607910	40.436985
629.554199	29.402990
629.500488	31.234594
629.446777	31.228514
629.393066	44.078728
629.339355	34.888863
629.285645	18.358984
629.231934	36.710815
629.178223	16.516649
629.124512	36.696518
629.070740	31.185963
629.017029	29.345776
628.963318	27.506306
628.909607	20.167360
628.855896	12.831274
628.802124	36.653637
628.748413	29.317196
628.694702	36.639351
628.640991	29.305769
628.587280	38.456326
628.533508	27.463448
628.479797	32.949711
628.426025	42.094200
628.372314	12.808781
628.318604	38.418850
628.264832	40.240471
628.211121	40.232620
628.157349	43.881573
628.103577	31.076717
628.049866	27.415283
627.996155	23.755278
627.942383	21.923670
627.888611	36.532322
627.834900	27.393896
627.781128	25.562647
627.727356	18.255470
627.673645	32.853432
627.619873	23.722849
627.566101	31.016130
627.512329	27.361832
627.458618	32.827789
627.404846	12.763869
627.351074	38.284134
627.297302	34.631260
627.243530	45.558552
627.189819	23.685820
627.136047	40.075867
627.082275	34.604214
627.028503	20.030106
626.974731	36.411259
626.920959	30.943525
626.867188	40.036739
626.813416	49.126396
626.759644	58.212502
626.705872	21.825422
626.652100	47.279171
626.598328	43.633781
626.544556	19.994907
626.490723	27.260454
626.436951	19.987091
626.383179	23.616491
626.329407	5.448894
626.275574	36.318855
626.221802	32.680580
626.168030	30.858955
626.114258	18.148777
626.060425	30.846886
626.006653	25.398350
625.952881	45.345322
625.899109	39.896076
625.845276	36.262066
625.791504	25.378479
625.737671	10.874363
625.683899	30.804667
625.630127	30.798637
625.576294	23.547291
625.522461	52.518291
625.468689	34.401798
625.414917	34.395065
625.361084	18.099121
625.307251	25.333811
625.253418	34.374866
625.199646	21.706192
625.145813	19.893446
625.092041	21.697691
625.038208	30.732376
624.984375	27.111490
624.930603	25.299101
624.876709	28.907595
624.822937	36.127415
624.769104	27.090252
624.715271	27.084944
624.661499	27.079638
624.607666	30.684240
624.553833	30.678228
624.500000	21.650974
624.446167	36.077885
624.392334	18.035406
624.338440	41.473305
624.284668	43.268005
624.230835	14.419841
624.177002	23.427647
624.123169	43.242561
624.069275	34.226978
624.015442	34.220268
623.961670	43.217125
623.907776	30.606125
623.853943	23.400093
623.800110	26.994810
623.746277	30.588116
623.692383	19.788427
623.638550	26.978924
623.584717	32.368355
623.530884	30.564114
623.476990	41.343334
623.423157	21.566200
623.369263	30.546120
623.315430	30.540125
623.261597	32.330254
623.207764	46.690086
623.153870	25.135880
623.100037	35.901348
623.046143	48.457302
622.992249	30.504162
622.938416	16.146090
622.884583	35.873154
622.830688	37.659412
622.776855	48.409733
622.722961	30.474215
622.669067	23.299232
622.615234	35.837929
622.561340	25.081621
622.507446	26.867884
622.453552	34.025963
622.399719	32.228790
622.345825	26.852045
622.291931	23.267197
622.238037	28.630920
622.184204	28.625292
622.130310	30.408394
622.076416	35.767548
622.022522	28.608410
621.968689	30.390457
621.914734	23.235191
621.860840	21.443649
621.807007	25.012671
621.753113	46.442966
621.699219	46.433830
621.645325	32.140171
621.591431	23.207779
621.537476	19.633488
621.483582	30.336691
621.429688	46.388161
621.375793	30.324751
621.321899	44.586445
621.268005	16.047960
621.214111	32.089603
621.160156	12.476833
621.106323	24.948753
621.052368	19.598732
620.998474	19.594873
620.944580	35.620026
620.890625	21.367805
620.836731	30.265097
620.782837	35.598984
620.728882	33.812370
620.674988	37.364204
620.621094	26.683460
620.567139	19.564014
620.513184	21.338356
620.459290	19.556305
620.405396	24.884939
620.351440	24.880033
620.297546	23.098335
620.243591	28.423117
620.189697	30.193607
620.135742	30.187654
620.081787	23.080126
620.027832	21.300531
619.973938	28.395107
619.920044	17.743443
619.866028	35.479885
619.812134	35.472889
619.758179	35.465893
619.704285	47.869507
619.650269	24.816330
619.596375	35.444904
619.542419	49.613079
619.488464	21.258553
619.434570	14.169571
619.380615	17.708469
619.326660	33.639450
619.272644	26.552219
619.218750	30.086575
619.164795	19.463940
619.110840	17.690998
619.056885	22.993757
619.002930	49.515236
618.948975	31.824938
618.894958	10.606217
618.841064	31.812368
618.787109	24.738066
618.733093	22.966524
618.679138	44.157669
618.625183	22.957451
618.571228	14.124871
618.517273	44.131500
618.463318	30.003490
618.409302	26.468437
618.355347	19.406351
618.301392	17.638651
618.247375	31.743296
618.193420	21.158014
618.139465	15.865374
618.085449	28.199533
618.031494	31.718203
617.977539	31.711931
617.923523	33.467087
617.869507	42.265854
617.815552	19.368019
617.761597	19.364187
617.707581	33.440617
617.653625	29.914635
617.599609	29.908716
617.545593	24.625834
617.491638	36.931442
617.437622	29.890966
617.383667	15.821498
617.329651	21.091156
617.275635	21.086981
617.221680	21.082808
617.167664	28.104847
617.113647	31.611692
617.059631	33.361294
617.005676	35.110195
616.951660	3.510324
616.897644	26.322220
616.843628	36.843811
616.789612	26.311796
616.735596	33.321674
616.681641	35.068497
616.627625	33.308475
616.573608	12.269112
616.519592	31.542894
616.465576	31.536646
616.411560	26.275330
616.357544	26.270123
616.303528	36.770885
616.249512	31.511654
616.195496	29.755108
616.141479	26.249302
616.087402	36.741737
616.033386	26.238895
615.979370	38.476086
615.925354	38.468456
615.871338	29.719730
615.817261	34.957455
615.763245	43.688152
615.709229	22.713333
615.655212	36.683491
615.601135	43.662159
615.547119	47.145779
615.493103	50.628014
615.439087	22.690813
615.385010	17.451008
615.330933	34.895088
615.276917	26.166122
615.222900	36.625301
615.168823	26.155737
615.114807	22.663807
615.060730	17.430237
615.006714	12.198743
614.952698	43.558289
614.898621	41.807655
614.844543	29.607876
614.790527	31.343288
614.736450	27.855167
614.682373	31.330839
614.628357	43.506413
614.574280	15.659197
614.520203	6.958261
614.466187	22.609854
614.412109	39.994102
614.358032	6.954113
614.303955	24.334560
614.249939	41.708099
614.195801	20.849905
614.141724	33.005787
614.087708	31.262426
614.033630	17.364561
613.979553	27.777775
613.925476	31.243784
613.871399	29.502150
613.817322	20.820906
613.763245	31.225149
613.709167	20.812626
613.655090	19.074446
613.601013	24.271738
613.546936	36.400364
613.492859	43.325146
613.438782	25.989916
613.384705	25.984745
613.330566	17.319715
613.276489	24.242777
613.222412	24.237951
613.168335	20.771252
613.114258	32.881271
613.060120	15.572238
613.006042	20.758850
612.951965	22.484278
612.897888	24.209017
612.843811	43.221779
612.789673	24.199375
612.735535	38.020016
612.681519	39.740284
612.627380	44.914848
612.573242	27.634401
612.519165	17.268061
612.465088	3.452924
612.410950	31.070126
612.356812	34.515484
612.302734	10.352581
612.248596	29.326468
612.194519	46.568050
612.140381	29.314779
612.086243	39.653267
612.032166	39.645363
611.978088	24.127148
611.923950	29.291410
611.869812	22.394848
611.815674	27.557394
611.761597	27.551897
611.707458	24.103102
611.653320	27.540909
611.599182	20.651562
611.545105	39.574265
611.490967	25.804153
611.436829	20.639204
611.382690	25.793858
611.328552	32.665699
611.274414	15.470139
611.220276	25.778419
611.166138	25.773273
611.112000	27.486006
611.057922	32.633114
611.003723	46.364117
610.949585	29.186394
610.895447	8.582520
610.841309	15.445451
610.787170	29.168915
610.733032	20.585711
610.678894	17.151333
610.624756	18.862698
610.570557	36.003410
610.516418	6.856422
610.462280	18.851395
610.408142	17.134209
610.354004	27.409254
610.299805	20.552834
610.245667	25.685907
610.191528	32.528980
610.137390	18.828804
610.083191	25.670509
610.029053	53.041779
609.974915	27.370930
609.920715	10.262047
609.866577	32.489983
609.812378	23.935200
609.758179	18.802469
609.704041	30.761522
609.649902	18.794949
609.595703	37.582378
609.541504	29.035118
609.487366	29.029310
609.433167	35.852562
609.379028	29.017696
609.324829	30.718472
609.270691	30.712324
609.216492	27.294380
609.162292	22.172245
609.108093	11.936512
609.053955	20.458496
608.999756	18.749866
608.945618	44.308994
608.891357	17.038509
608.837219	22.145626
608.782959	30.657034
608.728821	25.542412
608.674622	34.049728
608.620422	25.532183
608.566284	25.527067
608.512085	20.417562
608.457825	27.217964
608.403687	28.913292
608.349487	47.612350
608.295288	25.501505
608.241089	25.496395
608.186890	25.491285
608.132629	32.282490
608.078491	13.589903
608.024231	16.983973
607.970032	22.074739
607.915894	40.745193
607.861572	16.973761
607.807434	15.273321
607.753235	32.237209
607.698975	16.963551
607.644836	8.480074
607.590576	16.956747
607.536377	30.516020
607.482178	23.729921
607.427917	32.198433
607.373718	32.191971
607.319458	37.267433
607.265198	11.855441
607.211060	33.865891
607.156860	32.166138
607.102539	20.311378
607.048340	25.384127
606.994080	28.762901
606.939880	18.607552
606.885681	60.885216
606.831421	27.054663
606.777222	20.286922
606.722961	15.212136
606.668701	18.588877
606.614502	35.480728
606.560242	33.784382
606.505981	13.511038
606.451782	15.196864
606.397522	16.882011
606.343323	16.878620
606.289062	47.250641
606.234863	25.307755
606.180603	28.676359
606.126343	23.611078
606.072083	35.409496
606.017761	30.344896
605.963562	45.508194
605.909363	23.592098
605.855042	37.065842
605.800781	25.267082
605.746521	33.682671
605.692322	30.308306
605.638062	30.302210
605.583740	10.098704
605.529541	20.193346
605.475281	40.378567
605.421021	47.098850
605.366760	10.090580
605.312500	25.221375
605.258179	36.983906
605.203979	45.380203
605.149658	31.927790
605.095398	21.840933
605.041077	26.875736
604.986816	30.229116
604.932617	28.543974
604.878296	21.823349
604.824036	25.175718
604.769714	21.814562
604.715454	26.843285
604.661194	30.192612
604.606934	26.832472
604.552673	13.413533
604.498352	25.145308
604.444031	21.788210
604.389832	28.486534
604.335510	16.753408
604.281189	21.775042
604.226868	21.770653
604.172668	8.371640
604.118347	38.501785
604.064026	25.104797
604.009766	28.446369
603.955505	21.748720
603.901123	18.399052
603.846863	25.084558
603.792542	25.079500
603.738281	21.731182
603.683960	33.425846
603.629639	6.683821
603.575378	21.718037
603.521057	23.383936
603.466736	35.068829
603.412476	21.704893
603.358154	15.023433
603.303833	23.365068
603.249512	23.360353
603.195190	31.696938
603.140869	35.026386
603.086548	16.675865
603.032227	15.005249
602.977905	31.671352
602.923584	24.998650
602.869263	24.993603
602.815002	36.649883
602.760681	8.327836
602.706360	24.978464
602.651978	23.308523
602.597656	26.632933
602.543335	43.269772
602.489014	24.958286
602.434753	33.270992
602.380371	23.284988
602.326111	21.617405
602.271729	24.938120
602.217407	31.581902
602.163086	34.899258
602.108704	28.246069
602.054382	31.562754
602.000000	36.538956
601.945740	19.926311
601.891418	18.262091
601.837036	19.918253
601.782654	26.552299
601.728333	39.820396
601.673950	33.176952
601.619690	14.926608
601.565308	14.923589
601.510986	34.814663
601.456604	21.547573
601.402222	36.457745
601.347900	34.793533
601.293518	16.564997
601.239258	31.467123
601.184875	6.623316
601.130554	13.243952
601.076111	34.758335
601.021790	18.203062
600.967407	31.435286
600.913086	34.737228
600.858704	41.345467
600.804321	39.683613
600.750000	31.409830
600.695557	31.403467
600.641235	14.872313
600.586853	28.086458
600.532471	49.554295
600.478088	24.772127
600.423767	24.767109
600.369385	9.904836
600.315002	28.058014
600.260620	24.752054
600.206238	8.249012
600.151855	8.247340
600.097473	16.491337
600.043152	26.380791
599.988770	32.969303
599.934387	37.907009
