#Wave		#Intensity
3203.165039	4062.498047
3201.841797	4068.140381
3200.517578	4117.990234
3199.192383	4120.818359
3197.868164	4189.428223
3196.542969	4026.878906
3195.217773	4131.172363
3193.891602	4051.351807
3192.565430	4101.135742
3191.239258	4088.943115
3189.913086	4059.863281
3188.585938	4036.425781
3187.258789	4063.653564
3185.930664	4088.992920
3184.603516	4144.324707
3183.275391	4030.896240
3181.946289	4043.104004
3180.618164	4034.692383
3179.289062	3966.330078
3177.959961	4077.819824
3176.629883	4052.550537
3175.299805	4222.010254
3173.969727	4090.023193
3172.639648	4094.710449
3171.308594	4146.170898
3169.977539	4147.101562
3168.646484	4050.782959
3167.314453	4163.918945
3165.982422	4063.900635
3164.650391	4104.094727
3163.317383	4243.299316
3161.984375	4156.406738
3160.651367	4157.331543
3159.317383	4152.653809
3157.983398	4147.978516
3156.649414	4210.493164
3155.315430	4112.509277
3153.980469	4201.120605
3152.645508	4162.865234
3151.309570	4270.070312
3149.974609	4131.147949
3148.638672	4294.225586
3147.301758	4218.714844
3145.965820	4195.401367
3144.628906	4214.936523
3143.291016	4202.806641
3141.954102	4198.128418
3140.616211	4197.174805
3139.278320	4237.160156
3137.939453	4198.988770
3136.600586	4160.834473
3135.261719	4133.854980
3133.922852	4123.619629
3132.583008	4226.771484
3131.243164	4145.903320
3129.902344	4154.250000
3128.562500	4153.305664
3127.221680	4150.504395
3125.879883	4283.237793
3124.539062	4235.858398
3123.197266	4325.828125
3121.855469	4230.221191
3120.512695	4219.983887
3119.169922	4178.224609
3117.827148	4240.312988
3116.483398	4365.397949
3115.139648	4182.786133
3113.795898	4239.271484
3112.452148	4412.433105
3111.107422	4309.569336
3109.762695	4258.596191
3108.417969	4311.309570
3107.072266	4212.239746
3105.726562	4313.046875
3104.380859	4230.669922
3103.034180	4268.544922
3101.687500	4193.611328
3100.340820	4214.839355
3098.993164	4297.047852
3097.645508	4199.984375
3096.297852	4189.790527
3094.949219	4331.049316
3093.601562	4330.062012
3092.251953	4292.153320
3090.903320	4241.341797
3089.553711	4262.518066
3088.204102	4263.390625
3086.854492	4243.974609
3085.503906	4239.318848
3084.153320	4330.530273
3082.801758	4242.914551
3081.451172	4192.193359
3080.099609	4327.567383
3078.747070	4298.951660
3077.395508	4318.226562
3076.042969	4320.923340
3074.689453	4215.021973
3073.336914	4313.430664
3071.983398	4347.401855
3070.629883	4425.501953
3069.275391	4286.570801
3067.920898	4440.027832
3066.566406	4387.546875
3065.211914	4318.550781
3063.856445	4335.937012
3062.500977	4384.541504
3061.144531	4350.484375
3059.789062	4393.554199
3058.431641	4410.906250
3057.075195	4398.887207
3055.717773	4408.890625
3054.360352	4376.699219
3053.002930	4361.027832
3051.644531	4473.707031
3050.286133	4316.873535
3048.927734	4414.849609
3047.568359	4443.155762
3046.209961	4420.157715
3044.849609	4475.919922
3043.490234	4436.445801
3042.129883	4411.633789
3040.769531	4441.736816
3039.408203	4566.970703
3038.046875	4436.045898
3036.685547	4519.159180
3035.324219	4505.325684
3033.961914	4374.503418
3032.599609	4680.542480
3031.236328	4595.419922
3029.873047	4382.460449
3028.509766	4575.051758
3027.146484	4517.399902
3025.782227	4591.211914
3024.417969	4495.254395
3023.053711	4563.563477
3021.688477	4464.006836
3020.323242	4608.893066
3018.958008	4547.663086
3017.591797	4575.789551
3016.225586	4523.708008
3014.859375	4675.734863
3013.492188	4703.811523
3012.125000	4520.598145
3010.757812	4532.308105
3009.390625	4589.525391
3008.022461	4535.689941
3006.653320	4642.011230
3005.285156	4757.379883
3003.916016	4661.708496
3002.546875	4591.538574
3001.176758	4732.290527
2999.807617	4596.702148
2998.436523	4722.850098
2997.066406	4607.310547
2995.695312	4709.784668
2994.324219	4656.041504
2992.953125	4711.253906
2991.581055	4829.968262
2990.208984	4827.044922
2988.835938	4789.651367
2987.463867	4725.066895
2986.090820	4892.630371
2984.716797	4728.335449
2983.343750	4812.441406
2981.969727	4827.645508
2980.594727	4819.289551
2979.220703	4935.919434
2977.845703	4914.865234
2976.469727	4939.082520
2975.094727	5061.034180
2973.718750	5150.354980
2972.341797	5143.743164
2970.965820	5144.369629
2969.588867	5128.719238
2968.211914	5245.061035
2966.833984	5312.543457
2965.456055	5352.887207
2964.078125	5490.777344
2962.699219	5419.066406
2961.321289	5387.118652
2959.941406	5537.542969
2958.562500	5482.115723
2957.182617	5507.924316
2955.802734	5586.044922
2954.421875	5646.090820
2953.041992	5642.987305
2951.660156	5686.764160
2950.279297	5712.494141
2948.897461	5646.299316
2947.515625	5592.747070
2946.132812	5890.486816
2944.750977	5826.096680
2943.368164	5839.159180
2941.984375	5922.419922
2940.600586	5922.854980
2939.216797	5865.711914
2937.833008	5957.902344
2936.448242	5945.738281
2935.063477	5885.032227
2933.678711	6092.201660
2932.292969	6080.014160
2930.907227	6139.703613
2929.521484	6145.473633
2928.134766	6239.243652
2926.748047	6227.031250
2925.360352	6259.703125
2923.973633	6269.027344
2922.585938	6398.567383
2921.197266	6355.831055
2919.809570	6309.526855
2918.420898	6336.760254
2917.031250	6453.614258
2915.642578	6348.173828
2914.252930	6482.888672
2912.863281	6354.200684
2911.472656	6349.151367
2910.082031	6297.548828
2908.691406	6480.483887
2907.299805	6321.487305
2905.908203	6454.229004
2904.516602	6320.355957
2903.124023	6404.745605
2901.731445	6358.562988
2900.338867	6339.216797
2898.945312	6289.495117
2897.551758	6330.926758
2896.158203	6200.837891
2894.764648	6183.330078
2893.370117	6242.612305
2891.974609	6242.954590
2890.580078	6143.346191
2889.184570	6218.654785
2887.789062	6242.192871
2886.392578	6210.428223
2884.996094	6223.257324
2883.599609	6155.855469
2882.202148	6218.595703
2880.804688	6267.051270
2879.407227	6192.558594
2878.009766	6406.639648
2876.611328	6120.245605
2875.212891	6181.139160
2873.813477	6158.349609
2872.414062	6222.764160
2871.014648	6201.753906
2869.614258	6214.546875
2868.213867	6095.745117
2866.813477	6110.333496
2865.413086	6092.921875
2864.011719	6064.855469
2862.610352	6104.312012
2861.208008	6053.165039
2859.805664	5980.732422
2858.403320	6075.214844
2857.000000	5937.137207
2855.597656	6061.751953
2854.193359	5854.550293
2852.790039	5874.477539
2851.385742	5754.305664
2849.981445	5823.886230
2848.576172	5686.056152
2847.170898	5672.333008
2845.765625	5564.719238
2844.360352	5597.081543
2842.954102	5578.075195
2841.546875	5645.827148
2840.140625	5586.106934
2838.733398	5598.967285
2837.326172	5583.514648
2835.917969	5408.879883
2834.509766	5595.069824
2833.101562	5462.943359
2831.693359	5449.302246
2830.284180	5426.831543
2828.875000	5506.839844
2827.464844	5275.941895
2826.054688	5417.753906
2824.644531	5442.977539
2823.233398	5383.465820
2821.822266	5260.453613
2820.411133	5275.109375
2819.000000	5360.312012
2817.587891	5142.164062
2816.174805	5313.745117
2814.762695	5254.343750
2813.349609	5048.707031
2811.936523	5156.764648
2810.522461	5231.304688
2809.108398	5326.941895
2807.694336	5172.534180
2806.279297	5122.046875
2804.864258	5078.621582
2803.449219	5270.966797
2802.033203	5180.035645
2800.617188	5323.028809
2799.201172	5038.734863
2797.785156	5107.870117
2796.368164	5052.205078
2794.950195	5044.001953
2793.533203	5041.071289
2792.115234	5096.091797
2790.696289	5149.330078
2789.278320	5149.886719
2787.859375	5103.061523
2786.439453	4956.255371
2785.020508	5048.063965
2783.600586	5020.583984
2782.179688	4940.520508
2780.759766	5077.839844
2779.338867	4982.027832
2777.916992	5026.418457
2776.496094	5039.259277
2775.074219	5004.812500
2773.651367	5059.669922
2772.228516	5016.482422
2770.805664	4983.813965
2769.382812	5021.141602
2767.958984	5039.210938
2766.535156	4997.814941
2765.111328	4993.152832
2763.686523	4894.105957
2762.261719	4966.358398
2760.835938	4898.811035
2759.411133	4993.734863
2757.985352	5065.912598
2756.558594	5012.354492
2755.131836	4918.675781
2753.705078	4933.232910
2752.278320	4984.420410
2750.850586	4913.487305
2749.422852	4955.935547
2747.994141	4970.469238
2746.565430	4929.219238
2745.136719	5053.534668
2743.708008	4939.111816
2742.278320	4972.793945
2740.847656	4982.080078
2739.417969	4892.126465
2737.987305	4927.535156
2736.556641	4888.100098
2735.125000	4916.533203
2733.693359	4873.639648
2732.261719	4862.066895
2730.829102	4800.081543
2729.396484	4878.912598
2727.963867	4877.771973
2726.530273	4946.123535
2725.096680	5103.024902
2723.663086	4810.099609
2722.228516	4888.834473
2720.793945	4875.541016
2719.359375	4929.929199
2717.923828	4890.607910
2716.488281	4827.022461
2715.052734	4853.637695
2713.616211	5018.932617
2712.179688	4853.099121
2710.743164	4909.146484
2709.305664	4975.562012
2707.868164	4886.063477
2706.429688	4867.602539
2704.991211	4913.205566
2703.552734	4989.941406
2702.114258	4843.417969
2700.674805	4904.563477
2699.235352	4967.409180
2697.794922	4890.160645
2696.354492	4838.879883
2694.914062	4768.610352
2693.473633	5000.769531
2692.032227	4966.773438
2690.589844	4813.618164
2689.148438	4860.838867
2687.706055	4889.046875
2686.262695	4905.159668
2684.820312	4859.145020
2683.376953	4775.198242
2681.932617	4863.764648
2680.489258	4964.358887
2679.044922	4878.721680
2677.599609	4932.729492
2676.155273	4940.187500
2674.709961	4858.060059
2673.263672	4980.926270
2671.817383	4871.276855
2670.371094	4839.145996
2668.924805	4848.336426
2667.477539	4881.611816
2666.030273	4753.163574
2664.582031	4930.915527
2663.133789	4871.294922
2661.685547	4887.341309
2660.237305	4846.663574
2658.788086	4866.143555
2657.337891	4985.250977
2655.888672	4839.812500
2654.438477	4847.260254
2652.988281	4921.653320
2651.537109	4762.601074
2650.085938	4838.694824
2648.634766	4851.280273
2647.182617	4870.720215
2645.730469	4857.572266
2644.277344	4695.291504
2642.825195	4985.538574
2641.372070	4859.285156
2639.917969	4755.360352
2638.463867	4863.849121
2637.009766	4850.719238
2635.555664	4782.816406
2634.100586	4865.550293
2632.645508	4837.028809
2631.189453	4844.442871
2629.733398	4807.388184
2628.277344	4814.805176
2626.820312	4767.517578
2625.363281	4711.706543
2623.906250	4763.562988
2622.448242	4772.690430
2620.990234	4802.306152
2619.532227	4804.589355
2618.073242	4660.070312
2616.614258	4746.007812
2615.155273	4871.146973
2613.695312	4820.531250
2612.235352	4817.689453
2610.774414	4789.273926
2609.313477	4580.187012
2607.852539	4826.211426
2606.391602	4850.629883
2604.929688	4789.868164
2603.467773	4763.193848
2602.004883	4818.254883
2600.541992	4869.885254
2599.079102	4788.753418
2597.615234	4828.456055
2596.151367	4829.017578
2594.687500	4703.737305
2593.222656	4746.831055
2591.757812	4842.596191
2590.291992	4984.198242
2588.827148	4833.514160
2587.361328	4757.636230
2585.894531	4916.138672
2584.427734	4937.048340
2582.960938	4996.986816
2581.493164	4798.960449
2580.025391	5025.163574
2578.557617	4849.273438
2577.089844	4880.346680
2575.621094	4948.702637
2574.151367	5003.465820
2572.682617	4902.305176
2571.212891	4835.074707
2569.742188	4976.206055
2568.271484	4941.162598
2566.800781	4919.678711
2565.330078	5035.300293
2563.858398	4913.967773
2562.386719	4977.091309
2560.914062	4921.791016
2559.441406	4883.426270
2557.968750	4897.485352
2556.495117	4950.410645
2555.022461	4888.408691
2553.547852	4865.290527
2552.073242	5039.788086
2550.598633	4846.102051
2549.124023	4829.761230
2547.648438	4992.328125
2546.172852	4997.895508
2544.697266	4882.000000
2543.220703	4992.155273
2541.744141	4962.308105
2540.266602	5040.362305
2538.789062	4868.948730
2537.311523	5058.193359
2535.833008	4977.821289
2534.354492	4991.798828
2532.875977	5066.384277
2531.396484	4866.548340
2529.916992	5075.762695
2528.437500	4919.765137
2526.957031	4964.016602
2525.476562	4986.383789
2523.995117	4835.561035
2522.514648	4869.714355
2521.032227	4850.072754
2519.550781	4828.760254
2518.068359	4886.406250
2516.585938	4964.176270
2515.102539	4899.197754
2513.619141	4903.070801
2512.135742	4967.355469
2510.651367	4912.487793
2509.166992	4904.611816
2507.681641	4730.720215
2506.196289	4957.609863
2504.710938	4904.471191
2503.225586	4916.712402
2501.739258	4962.455078
2500.251953	4844.027832
2498.765625	4921.582520
2497.278320	4833.355469
2495.791016	4961.088379
2494.302734	5021.824219
2492.814453	4823.218262
2491.325195	4815.381836
2489.835938	4881.124512
2488.346680	4851.543457
2486.857422	4823.647461
2485.367188	4819.158691
2483.876953	4874.812988
2482.385742	4907.057617
2480.894531	4804.032227
2479.403320	4901.384277
2477.911133	4858.493164
2476.418945	4967.465332
2474.926758	4846.171875
2473.433594	4881.710449
2471.940430	4900.557617
2470.446289	4877.719727
2468.952148	4949.890137
2467.458008	4928.716797
2465.962891	4910.884766
2464.467773	4939.693359
2462.972656	5060.064941
2461.476562	5032.225586
2459.980469	4886.236816
2458.484375	5001.542480
2456.987305	5055.245117
2455.490234	5025.768555
2453.992188	4974.690918
2452.494141	5015.062012
2450.996094	4960.686523
2449.497070	4962.827148
2447.998047	5059.647461
2446.499023	4992.013672
2444.999023	4967.579590
2443.499023	5097.526367
2441.999023	5111.245605
2440.498047	4998.867188
2438.997070	5059.046387
2437.495117	5069.447754
2435.993164	5058.290527
2434.491211	5098.521484
2432.988281	5135.418457
2431.485352	5094.431641
2429.982422	5068.370605
2428.478516	4990.987305
2426.974609	4978.207031
2425.469727	5135.912109
2423.964844	5045.329590
2422.459961	5001.111328
2420.955078	5001.570801
2419.449219	5187.228516
2417.942383	5179.376953
2416.436523	5045.917480
2414.928711	5152.116211
2413.421875	5051.766113
2411.914062	5088.545410
2410.406250	5065.863281
2408.897461	5150.494141
2407.389648	4980.921387
2405.879883	5070.480957
2404.371094	4993.386230
2402.861328	5148.868164
2401.350586	5137.743652
2399.839844	5016.179199
2398.329102	5110.565430
2396.818359	4997.303223
2395.306641	5137.770996
2393.794922	5121.719727
2392.282227	5071.100098
2390.769531	5010.627930
2389.256836	5037.405273
2387.743164	5016.456055
2386.229492	5125.462402
2384.714844	5033.788086
2383.200195	5095.058105
2381.685547	4880.156738
2380.169922	4951.293457
2378.655273	5076.611816
2377.138672	5063.897949
2375.622070	4941.167480
2374.105469	5002.369141
2372.588867	4994.604980
2371.071289	4983.562500
2369.553711	4870.810059
2368.035156	5112.386719
2366.516602	4897.991211
2364.998047	5003.375977
2363.478516	4931.700195
2361.958984	4969.843750
2360.439453	4955.545898
2358.918945	4967.459961
2357.398438	4866.386230
2355.876953	4986.357910
2354.355469	5027.713867
2352.833984	4933.242188
2351.311523	4956.595703
2349.789062	4976.666992
2348.266602	5088.291504
2346.743164	4918.699707
2345.219727	4914.250000
2343.695312	4980.059082
2342.170898	4955.994629
2340.646484	4941.739746
2339.121094	4867.081055
2337.595703	4962.218262
2336.070312	5054.045410
2334.543945	5018.568848
2333.017578	4924.388672
2331.490234	5109.109863
2329.962891	5109.512207
2328.435547	5034.936035
2326.907227	4950.617676
2325.378906	5104.199219
2323.850586	5102.972168
2322.321289	5142.454590
2320.791992	5105.401855
2319.261719	4973.965820
2317.731445	5037.857910
2316.201172	5152.150391
2314.669922	5053.325195
2313.138672	5141.541504
2311.607422	5228.089355
2310.075195	5061.054688
2308.542969	5037.088379
2307.009766	5277.922852
2305.476562	5140.229004
2303.943359	5168.218262
2302.409180	5043.602539
2300.875000	5139.762695
2299.340820	5148.260254
2297.805664	5249.214355
2296.269531	5197.676270
2294.734375	5272.627441
2293.198242	5253.526367
2291.661133	5218.228516
2290.125000	5249.374512
2288.587891	5254.588867
2287.049805	5240.367188
2285.511719	5308.721191
2283.973633	5310.678223
2282.434570	5212.304199
2280.895508	5172.219727
2279.356445	5143.475586
2277.816406	5274.833496
2276.276367	5341.461426
2274.735352	5338.556641
2273.194336	5235.467773
2271.653320	5209.972168
2270.111328	5270.088867
2268.569336	5320.487793
2267.027344	5328.889648
2265.484375	5277.571289
2263.941406	5189.165527
2262.397461	5250.826172
2260.853516	5306.004883
2259.309570	5299.886719
2257.764648	5316.338379
2256.219727	5284.434082
2254.673828	5373.385254
2253.127930	5326.983887
2251.582031	5303.150879
2250.036133	5288.989258
2248.488281	5303.807617
2246.941406	5415.174316
2245.393555	5236.889160
2243.845703	5354.650879
2242.296875	5334.059570
2240.749023	5308.653809
2239.199219	5353.982422
2237.649414	5275.555176
2236.099609	5385.130371
2234.549805	5306.732422
2232.999023	5340.775391
2231.448242	5414.936035
2229.896484	5310.906738
2228.344727	5389.851562
2226.792969	5324.378418
2225.240234	5379.223633
2223.687500	5434.041992
2222.133789	5336.543457
2220.580078	5356.085938
2219.026367	5370.811523
2217.471680	5444.799316
2215.916992	5361.804688
2214.361328	5365.309082
2212.806641	5327.192871
2211.250000	5322.701660
2209.694336	5225.415527
2208.137695	5446.487305
2206.580078	5373.205078
2205.022461	5301.556152
2203.464844	5324.247070
2201.907227	5346.926270
2200.348633	5396.753906
2198.789062	5219.750000
2197.229492	5232.855469
2195.669922	5320.988281
2194.110352	5281.392090
2192.549805	5300.854492
2190.989258	5326.688477
2189.427734	5274.359375
2187.866211	5360.777832
2186.303711	5187.310547
2184.741211	5182.864258
2183.178711	5251.713867
2181.616211	5280.705566
2180.052734	5311.275391
2178.488281	5233.560059
2176.923828	5219.554688
2175.359375	5337.644043
2173.794922	5290.207520
2172.229492	5175.985840
2170.663086	5287.637695
2169.097656	5257.734863
2167.530273	5237.383789
2165.963867	5232.932617
2164.396484	5201.475098
2162.829102	5251.037598
2161.260742	5249.761230
2159.692383	5172.281738
2158.123047	5239.272949
2156.554688	5147.551758
2154.984375	5106.639648
2153.415039	5187.870605
2151.844727	5242.105957
2150.273438	5167.909180
2148.702148	5141.294434
2147.130859	5090.924316
2145.559570	5176.810547
2143.987305	5349.758301
2142.414062	5237.624023
2140.840820	5294.917480
2139.267578	5287.298340
2137.694336	5290.757324
2136.120117	5107.564453
2134.544922	5202.785645
2132.970703	5184.127441
2131.394531	5377.281738
2129.819336	5257.453613
2128.243164	5281.450684
2126.666992	5275.425293
2125.089844	5182.553223
2123.512695	5239.701660
2121.934570	5225.798340
2120.357422	5304.999023
2118.778320	5256.379395
2117.200195	5332.378418
2115.621094	5316.887207
2114.041016	5372.340820
2112.460938	5394.670898
2110.880859	5253.124512
2109.299805	5234.515625
2107.718750	5367.101074
2106.137695	5353.195801
2104.555664	5248.000000
2102.973633	5275.045898
2101.390625	5322.531250
2099.807617	5436.056152
2098.224609	5463.034668
2096.640625	5247.886719
2095.056641	5399.067871
2093.471680	5334.893555
2091.886719	5316.309570
2090.301758	5252.186035
2088.715820	5395.365723
2087.129883	5395.617676
2085.542969	5289.144043
2083.956055	5438.484863
2082.369141	5316.365234
2080.781250	5473.466797
2079.193359	5379.620117
2077.604492	5378.305176
2076.015625	5392.662109
2074.426758	5444.614746
2072.836914	5382.192871
2071.247070	5427.857910
2069.656250	5377.995117
2068.065430	5367.288086
2066.474609	5527.157715
2064.882812	5402.209961
2063.291016	5400.888184
2061.698242	5457.424805
2060.105469	5512.369629
2058.512695	5498.516602
2056.918945	5440.917480
2055.325195	5514.571289
2053.731445	5361.724609
2052.136719	5401.008789
2050.541016	5435.590332
2048.946289	5401.484863
2047.349609	5428.247070
2045.753906	5423.797363
2044.157227	5395.956543
2042.560547	5432.054199
2040.962891	5522.689941
2039.365234	5466.792969
2037.766602	5385.995117
2036.167969	5380.001953
2034.569336	5370.896973
2032.969727	5483.230469
2031.370117	5404.062012
2029.769531	5505.438965
2028.168945	5374.964844
2026.568359	5406.308105
2024.966797	5403.427246
2023.365234	5537.348145
2021.762695	5529.772949
2020.160156	5483.355469
2018.557617	5457.155273
2016.954102	5486.876465
2015.350586	5446.713379
2013.746094	5521.437500
2012.141602	5468.869629
2010.537109	5568.375000
2008.931641	5594.927734
2007.326172	5455.536621
2005.719727	5522.413086
2004.113281	5623.355469
2002.506836	5663.813477
2000.899414	5481.162109
1999.291992	5516.987793
1997.683594	5668.929688
1996.075195	5684.565430
1994.466797	5607.330566
1992.857422	5624.520020
1991.248047	5630.871582
1989.637695	5559.891602
1988.027344	5556.978516
1986.416016	5453.588867
1984.805664	5701.060059
1983.193359	5657.941406
1981.582031	5560.780762
1979.968750	5613.462402
1978.356445	5624.432129
1976.743164	5601.438477
1975.129883	5566.110840
1973.515625	5560.112305
1971.901367	5669.794922
1970.286133	5589.756836
1968.670898	5620.754395
1967.055664	5714.927246
1965.439453	5670.375488
1963.823242	5639.709961
1962.207031	5715.325684
1960.589844	5678.503906
1958.971680	5530.867188
1957.353516	5741.881348
1955.735352	5548.143066
1954.117188	5769.815430
1952.497070	5763.779785
1950.877930	5668.574707
1949.257812	5617.990723
1947.637695	5658.096191
1946.016602	5627.510742
1944.395508	5619.979004
1942.774414	5766.005859
1941.152344	5741.556152
1939.530273	5675.678223
1937.907227	5694.225098
1936.284180	5573.165039
1934.660156	5722.088379
1933.036133	5709.942871
1931.412109	5702.401855
1929.787109	5929.340332
1928.162109	5848.204590
1926.536133	5764.044922
1924.910156	5811.625977
1923.284180	5666.275391
1921.657227	5595.997559
1920.030273	5733.868164
1918.402344	5850.252441
1916.774414	5861.042969
1915.146484	5691.391113
1913.517578	5745.019531
1911.888672	5754.297852
1910.258789	5794.131348
1908.628906	5867.551758
1906.998047	5786.684570
1905.367188	5656.998047
1903.736328	5846.408691
1902.104492	5835.806152
1900.472656	5837.414062
1898.839844	5782.583008
1897.207031	5817.751465
1895.574219	5955.049805
1893.940430	5868.220215
1892.306641	5936.864258
1890.671875	5830.276367
1889.037109	5876.048340
1887.402344	5969.001465
1885.766602	6032.983887
1884.129883	5934.084961
1882.494141	5821.540527
1880.856445	5934.188477
1879.219727	5932.718750
1877.582031	5830.899414
1875.944336	5881.137207
1874.305664	5818.892578
1872.666016	5812.892578
1871.027344	5914.739258
1869.387695	5890.495117
1867.747070	5852.598633
1866.106445	5914.895508
1864.465820	5968.056152
1862.824219	5904.377441
1861.182617	5962.063477
1859.541016	5998.492188
1857.898438	5856.022949
1856.254883	5839.415039
1854.611328	6007.665527
1852.967773	6004.660156
1851.324219	5983.482422
1849.678711	5866.930176
1848.034180	5915.424805
1846.388672	5926.062988
1844.743164	5924.591309
1843.096680	5877.744141
1841.450195	5938.283691
1839.802734	6066.822754
1838.155273	5948.937012
1836.507812	5933.859863
1834.859375	5941.449707
1833.210938	5794.985840
1831.561523	5881.120605
1829.912109	5838.901855
1828.261719	5953.656250
1826.612305	6065.335449
1824.960938	6003.491211
1823.309570	6068.352539
1821.658203	5988.444824
1820.006836	5949.273438
1818.354492	6106.020020
1816.701172	6140.658203
1815.047852	5970.440430
1813.394531	6068.336914
1811.740234	5958.437500
1810.085938	6116.489258
1808.430664	6027.696289
1806.775391	5996.110352
1805.120117	6132.978027
1803.463867	6045.749512
1801.807617	6039.734375
1800.150391	6041.236328
1798.493164	6057.760742
1796.835938	5961.623535
1795.177734	6135.833984
1793.518555	6089.266602
1791.860352	6161.294922
1790.200195	6072.728027
1788.541016	6156.724609
1786.880859	6054.703613
1785.219727	6174.647949
1783.558594	6240.566406
1781.897461	6161.079102
1780.235352	6158.044922
1778.573242	6253.875000
1776.910156	6246.325195
1775.247070	6214.823730
1773.583984	6102.509277
1771.919922	6193.766113
1770.255859	6204.189453
1768.590820	6269.947754
1766.925781	6298.289551
1765.259766	6326.616699
1763.593750	6254.792480
1761.927734	6348.859863
1760.260742	6297.978516
1758.593750	6299.393066
1756.925781	6396.363770
1755.257812	6211.163086
1753.588867	6317.060059
1751.919922	6379.636230
1750.250977	6251.257324
1748.581055	6281.011230
1746.911133	6270.496582
1745.240234	6294.267578
1743.569336	6313.556152
1741.897461	6337.303223
1740.225586	6308.910645
1738.553711	6307.333496
1736.880859	6339.994629
1735.208008	6397.938477
1733.534180	6448.414062
1731.860352	6327.801270
1730.185547	6408.010254
1728.510742	6315.715332
1726.835938	6392.913574
1725.160156	6447.781738
1723.484375	6435.769043
1721.807617	6391.085449
1720.130859	6475.609375
1718.453125	6465.081055
1716.775391	6396.675781
1715.097656	6442.555176
1713.418945	6497.311035
1711.740234	6466.023438
1710.060547	6532.605957
1708.380859	6606.566406
1706.700195	6480.430176
1705.019531	6563.254883
1703.338867	6543.835938
1701.657227	6693.238281
1699.975586	6590.891113
1698.292969	6611.439941
1696.610352	6571.310547
1694.926758	6724.991699
1693.243164	6778.026367
1691.559570	6770.412109
1689.875000	6672.630859
1688.189453	6815.785156
1686.504883	7020.920410
1684.818359	7017.682129
1683.132812	6916.980469
1681.446289	7005.302246
1679.758789	7022.731934
1678.071289	7136.067383
1676.383789	7029.533691
1674.695312	7234.250977
1673.006836	7309.108887
1671.317383	7258.626953
1669.627930	7250.909180
1667.938477	7291.816406
1666.248047	7316.499023
1664.556641	7361.785645
1662.865234	7384.964844
1661.173828	7547.963379
1659.481445	7406.270020
1657.789062	7492.678711
1656.096680	7445.200684
1654.403320	7438.917969
1652.708984	7544.362305
1651.014648	7414.602051
1649.320312	7555.261719
1647.625000	7519.575684
1645.929688	7535.307129
1644.233398	7520.197754
1642.537109	7465.463379
1640.840820	7506.141602
1639.143555	7555.601562
1637.445312	7527.298828
1635.748047	7598.722656
1634.048828	7522.043945
1632.350586	7759.048340
1630.651367	7584.193848
1628.951172	7766.860352
1627.250977	7684.355957
1625.549805	7795.160156
1623.849609	7762.457520
1622.147461	7715.135742
1620.445312	7900.462402
1618.743164	7778.531738
1617.041016	7785.345703
1615.337891	7866.714355
1613.633789	7793.114258
1611.929688	7976.722656
1610.225586	7865.148926
1608.520508	8016.515137
1606.814453	7975.070801
1605.109375	8129.250977
1603.403320	7998.776367
1601.696289	8129.527344
1599.989258	8200.408203
1598.281250	8105.010254
1596.573242	8334.769531
1594.865234	8154.848633
1593.156250	8283.934570
1591.447266	8344.485352
1589.737305	8288.491211
1588.027344	8305.327148
1586.317383	8275.572266
1584.606445	8366.623047
1582.894531	8576.932617
1581.182617	8432.216797
1579.470703	8398.093750
1577.757812	8471.572266
1576.044922	8481.059570
1574.331055	8394.635742
1572.617188	8314.066406
1570.902344	8612.606445
1569.187500	8542.185547
1567.472656	8465.992188
1565.756836	8520.451172
1564.041016	8513.943359
1562.324219	8781.591797
1560.607422	8717.012695
1558.889648	8707.558594
1557.171875	8618.389648
1555.453125	8516.222656
1553.734375	8519.862305
1552.015625	8681.369141
1550.295898	8669.036133
1548.575195	8805.812500
1546.855469	8637.150391
1545.133789	8733.351562
1543.413086	8504.037109
1541.691406	8619.021484
1539.968750	8715.151367
1538.246094	8668.136719
1536.522461	8671.720703
1534.799805	8565.506836
1533.075195	8525.784180
1531.350586	8588.601562
1529.625977	8479.599609
1527.900391	8669.398438
1526.174805	8592.172852
1524.449219	8470.267578
1522.721680	8511.383789
1520.995117	8535.177734
1519.267578	8419.143555
1517.540039	8440.064453
1515.811523	8373.093750
1514.082031	8362.328125
1512.353516	8374.605469
1510.623047	8610.007812
1508.893555	8292.638672
1507.163086	8502.041992
1505.431641	8425.083984
1503.700195	8371.173828
1501.968750	8425.120117
1500.236328	8299.367188
1498.502930	8320.250977
1496.770508	8414.393555
1495.036133	8313.153320
1493.302734	8450.324219
1491.567383	8373.529297
1489.833008	8362.790039
1488.097656	8331.968750
1486.361328	8325.547852
1484.625000	8334.904297
1482.888672	8382.965820
1481.151367	8567.170898
1479.414062	8417.394531
1477.675781	8562.815430
1475.937500	8355.823242
1474.198242	8386.631836
1472.458984	8466.096680
1470.718750	8514.033203
1468.978516	8426.018555
1467.238281	8433.887695
1465.497070	8587.620117
1463.754883	8513.948242
1462.012695	8554.662109
1460.270508	8496.753906
1458.527344	8606.023438
1456.784180	8458.149414
1455.041016	8600.212891
1453.295898	8583.747070
1451.551758	8533.037109
1449.806641	8714.920898
1448.060547	8477.337891
1446.314453	8435.247070
1444.568359	8460.186523
1442.821289	8496.514648
1441.074219	8485.798828
1439.326172	8399.583008
1437.578125	8448.714844
1435.829102	8371.094727
1434.080078	8277.853516
1432.330078	8336.938477
1430.580078	8181.148926
1428.830078	8339.798828
1427.079102	8259.456055
1425.327148	8226.071289
1423.575195	8309.252930
1421.823242	8152.244629
1420.070312	8148.743164
1418.317383	8243.241211
1416.563477	8309.291992
1414.809570	8101.336914
1413.054688	8374.589844
1411.299805	8383.801758
1409.544922	8309.318359
1407.789062	8443.333008
1406.032227	8432.669922
1404.275391	8334.134766
1402.518555	8276.741211
1400.760742	8518.289062
1399.002930	8408.474609
1397.244141	8394.998047
1395.485352	8391.436523
1393.725586	8383.629883
1391.965820	8414.027344
1390.205078	8417.534180
1388.444336	8483.258789
1386.683594	8423.125000
1384.921875	8327.686523
1383.159180	8382.077148
1381.396484	8221.713867
1379.633789	8352.366211
1377.870117	8283.867188
1376.106445	8314.213867
1374.341797	8290.916992
1372.577148	8267.631836
1370.811523	8305.008789
1369.045898	8336.725586
1367.279297	8409.308594
1365.512695	8326.817383
1363.745117	8344.411133
1361.977539	8447.925781
1360.209961	8461.252930
1358.441406	8411.213867
1356.672852	8485.069336
1354.903320	8475.857422
1353.132812	8451.174805
1351.363281	8537.620117
1349.591797	8396.220703
1347.821289	8403.908203
1346.048828	8467.808594
1344.277344	8433.320312
1342.504883	8322.993164
1340.731445	8492.190430
1338.958008	8395.943359
1337.183594	8215.526367
1335.409180	8454.782227
1333.634766	8146.775391
1331.859375	8245.668945
1330.083984	8190.268066
1328.307617	8298.911133
1326.530273	8334.620117
1324.753906	8157.339355
1322.975586	8305.125977
1321.198242	8252.578125
1319.418945	8285.458984
1317.640625	8319.722656
1315.861328	8314.786133
1314.081055	8252.494141
1312.300781	8292.331055
1310.519531	8242.659180
1308.738281	8324.413086
1306.957031	8362.801758
1305.174805	8320.133789
1303.392578	8281.676758
1301.609375	8279.546875
1299.825195	8227.158203
1298.041016	8292.037109
1296.256836	8160.134277
1294.471680	8297.536133
1292.686523	8206.142578
1290.900391	8282.111328
1289.114258	8277.191406
1287.328125	8223.499023
1285.541016	8231.133789
1283.752930	8229.014648
1281.964844	8282.595703
1280.175781	8185.797363
1278.386719	8178.121582
1276.597656	8198.278320
1274.807617	8396.479492
1273.016602	8139.816406
1271.226562	8241.995117
1269.434570	8086.972168
1267.642578	8111.291016
1265.850586	8180.053223
1264.057617	8201.555664
1262.264648	8060.585449
1260.470703	8269.513672
1258.676758	8224.357422
1256.881836	8089.038086
1255.086914	8012.046387
1253.291992	8080.704590
1251.495117	8091.097656
1249.699219	8079.307617
1247.902344	8153.436035
1246.104492	7990.632324
1244.306641	8031.503906
1242.508789	7944.968750
1240.709961	8081.343750
1238.910156	8041.891602
1237.110352	8144.964844
1235.310547	8030.822754
1233.509766	8028.748047
1231.708984	7989.347168
1229.907227	7937.526855
1228.105469	7773.809082
1226.302734	7893.364258
1224.500000	8048.764160
1222.696289	8008.023926
1220.892578	8010.095215
1219.087891	7950.064941
1217.283203	8016.990234
1215.477539	7896.300293
1213.671875	7884.605957
1211.866211	7864.645020
1210.059570	7837.803223
1208.251953	7892.266602
1206.444336	7859.919922
1204.636719	7779.390137
1202.828125	7745.710938
1201.018555	7800.139160
1199.208984	7609.600098
1197.399414	7767.210938
1195.588867	7673.051758
1193.777344	7771.438965
1191.966797	7637.461914
1190.154297	7584.635254
1188.341797	7641.749023
1186.529297	7818.333008
1184.715820	7657.014648
1182.902344	7711.317383
1181.087891	7613.244141
1179.273438	7615.387207
1177.458008	7546.195801
1175.642578	7531.896484
1173.826172	7698.585938
1172.009766	7602.009766
1170.193359	7487.668457
1168.375000	7454.216309
1166.557617	7315.317383
1164.739258	7531.137695
1162.919922	7404.609863
1161.100586	7358.893555
1159.281250	7489.702637
1157.460938	7311.302246
1155.639648	7500.857422
1153.818359	7375.865234
1151.997070	7368.482910
1150.174805	7307.812012
1148.351562	7452.086914
1146.528320	7334.062988
1144.705078	7409.984863
1142.880859	7346.633301
1141.056641	7295.595703
1139.231445	7260.956055
1137.405273	7405.014648
1135.579102	7373.090332
1133.752930	7274.381836
1131.925781	7373.346191
1130.098633	7304.663574
1128.270508	7349.079102
1126.442383	7231.411133
1124.613281	7289.435547
1122.784180	7361.041016
1120.954102	7167.255371
1119.124023	7291.910645
1117.292969	7147.205078
1115.461914	7163.021484
1113.629883	7216.891602
1111.797852	7224.525879
1109.964844	7234.873047
1108.131836	7078.142090
1106.298828	7265.054688
1104.464844	7183.064453
1102.629883	7258.556641
1100.794922	7112.834961
1098.958984	7157.104492
1097.123047	7322.050781
1095.286133	7166.933594
1093.449219	7307.391113
1091.612305	7156.422852
1089.774414	7097.656738
1087.935547	7047.047363
1086.096680	7148.119141
1084.257812	7201.757324
1082.417969	7164.691895
1080.577148	7038.346680
1078.736328	7066.269043
1076.895508	7156.382324
1075.053711	7149.107422
1073.210938	7144.538574
1071.368164	7071.058105
1069.525391	7080.019531
1067.681641	7134.894043
1065.836914	7033.117676
1063.992188	7063.677734
1062.147461	6930.933594
1060.301758	7027.609863
1058.456055	7035.215820
1056.609375	6924.155762
1054.761719	7049.065430
1052.914062	7004.096680
1051.066406	7019.782227
1049.217773	6974.843262
1047.369141	7067.287109
1045.519531	6886.380371
1043.668945	6904.769531
1041.818359	7041.561523
1039.967773	6980.529297
1038.116211	6832.108887
1036.264648	7042.761230
1034.412109	6938.759766
1032.559570	6906.036133
1030.706055	6871.985352
1028.851562	6906.452148
1026.998047	6926.129395
1025.142578	6978.014160
1023.287109	6870.162598
1021.431641	6893.856934
1019.575195	6870.589844
1017.718750	6824.536621
1015.861328	6858.947754
1014.003906	6720.437500
1012.145508	6742.796387
1010.287109	6887.050293
1008.427734	6816.942383
1006.567383	6981.183594
1004.708008	6959.275391
1002.846680	6885.187012
1000.985352	7029.210938
999.124023	6821.388672
997.261719	6874.424316
995.399414	6797.759766
993.536133	6737.171875
991.672852	6756.783203
989.808594	6738.981445
987.944336	6960.229004
986.079102	6792.854004
984.213867	6755.033691
982.347656	6725.239258
980.480469	6718.138184
978.614258	6707.039062
976.746094	6750.610840
974.877930	6702.184570
973.009766	6676.437500
971.140625	6775.937012
969.271484	6799.463867
967.401367	6789.687988
965.531250	6633.482422
963.660156	6582.497559
961.788086	6663.260254
959.916992	6709.395020
958.043945	6634.491699
956.170898	6610.146484
954.297852	6596.446289
952.423828	6702.342773
950.549805	6562.424316
948.674805	6552.729980
946.798828	6669.174316
944.923828	6536.009277
943.046875	6583.390137
941.169922	6425.109375
939.292969	6723.169434
937.415039	6433.662109
935.536133	6420.038086
933.657227	6515.093750
931.778320	6508.079102
929.898438	6510.338867
928.018555	6513.921875
926.137695	6528.092773
924.255859	6395.342773
922.374023	6406.890137
920.492188	6389.328125
918.609375	6558.246582
916.725586	6342.330566
914.841797	6490.021973
912.958008	6594.027344
911.073242	6417.903809
909.187500	6470.362793
907.301758	6393.393555
905.416016	6373.227051
903.528320	6483.721191
901.641602	6409.446289
899.753906	6345.762207
897.865234	6352.000000
895.976562	6396.464844
894.087891	6434.315918
892.197266	6520.898438
890.307617	6432.237305
888.416992	6481.899414
886.525391	6403.826660
884.633789	6306.050781
882.741211	6375.443359
880.848633	6264.570312
878.955078	6368.130371
877.061523	6428.245605
875.166992	6410.773438
873.272461	6285.549805
871.376953	6282.575195
869.481445	6367.602051
867.584961	6247.739746
865.688477	6322.228027
863.791016	6352.054199
861.893555	6383.176270
859.995117	6336.890137
858.096680	6328.657227
856.197266	6323.049805
854.296875	6380.357422
852.396484	6366.876465
850.496094	6307.552734
848.594727	6232.543945
846.693359	6305.523926
844.791016	6197.830566
842.887695	6273.396973
840.984375	6375.087402
839.081055	6251.764648
837.176758	6319.409180
835.271484	6275.904785
833.366211	6302.993652
831.460938	6249.062988
829.553711	6206.916016
827.647461	6369.805176
825.740234	6317.203613
823.832031	6196.762207
821.923828	6298.197754
820.014648	6230.001465
818.105469	6314.419922
816.195312	6217.571777
814.285156	6180.730957
812.374023	6323.730957
810.462891	6249.101562
808.550781	6125.021484
806.638672	6252.296387
804.725586	6186.854980
802.812500	6273.703613
800.898438	6169.260742
798.983398	6254.765625
797.069336	6050.259766
795.153320	6099.351074
793.237305	6126.322754
791.321289	6084.418457
789.404297	6134.758789
787.486328	6077.291016
785.568359	6027.642090
783.650391	5936.486816
781.730469	6082.828125
779.811523	5999.488770
777.891602	5939.536133
775.970703	5954.811523
774.049805	6088.028320
772.127930	6002.182129
770.206055	5944.880859
768.283203	5877.248535
766.360352	5979.267578
764.436523	5978.971191
762.512695	5954.086914
760.587891	6036.595703
758.663086	5967.732422
756.737305	5945.455566
754.810547	5908.969727
752.883789	5882.841797
750.957031	5983.345215
749.029297	5873.250977
747.100586	5954.332031
745.171875	5832.684570
743.243164	5978.264160
741.313477	5916.027344
739.382812	6033.126953
737.452148	5865.159668
735.520508	5832.653809
733.588867	5959.991699
731.656250	5962.269043
729.723633	5861.484863
727.790039	5883.104492
725.856445	5912.436523
723.921875	5823.329590
721.987305	5819.202637
720.051758	5901.274414
718.115234	5816.098633
716.178711	5859.550781
714.242188	5852.845215
712.304688	5785.740723
710.366211	5830.449219
708.427734	5690.170898
706.489258	5754.141602
704.549805	5818.078125
702.609375	5721.550293
700.668945	5759.797852
698.727539	5696.687500
696.786133	5640.021973
694.843750	5679.541504
692.901367	5743.391602
690.958008	5695.727051
689.013672	5618.623535
687.069336	5645.296875
685.125000	5668.114746
683.179688	5616.678711
681.233398	5644.609375
679.287109	5637.982422
677.340820	5650.543457
675.393555	5567.198730
673.445312	5613.006348
671.497070	5624.284180
669.547852	5561.453613
667.598633	5682.583496
665.648438	5590.400391
663.698242	5643.797363
661.747070	5568.264160
659.795898	5596.119141
657.843750	5617.580566
655.890625	5681.112305
653.937500	5660.467285
651.984375	5699.736328
650.030273	5658.709473
648.075195	5551.462891
646.120117	5588.180664
644.164062	5539.575684
642.208008	5628.461914
640.250977	5718.572266
638.293945	5561.836914
636.335938	5421.718750
634.377930	5455.865723
632.418945	5561.177246
630.458984	5452.939453
628.499023	5434.960938
626.539062	5495.737793
624.578125	5453.630371
622.616211	5406.467773
620.654297	5407.554688
618.691406	5368.041016
616.728516	5402.115234
614.764648	5361.354980
612.800781	5313.009766
610.835938	5312.850098
608.871094	5317.758301
606.905273	5361.931152
604.938477	5280.709961
602.971680	5309.675781
601.004883	5332.296875
599.037109	5208.125977
597.068359	5345.875488
595.099609	5182.562500
593.129883	5249.442383
591.160156	5211.375488
589.189453	5236.510254
587.218750	5179.517090
585.247070	5214.749512
583.275391	5190.619629
581.302734	5116.011230
579.329102	5214.327637
577.355469	5156.152344
575.380859	5172.422363
573.406250	5158.420898
571.431641	5102.827148
569.455078	5178.328125
567.479492	5165.594238
565.501953	4931.184570
563.524414	5143.923828
561.546875	5196.670410
559.568359	5021.591309
557.589844	5007.656250
555.609375	5060.395020
553.629883	4987.352051
551.649414	4929.434570
549.667969	4955.756348
547.686523	5022.271973
545.704102	4945.547363
543.721680	5035.889648
541.738281	4966.734863
539.753906	4964.140137
537.769531	5031.815918
535.785156	5004.114258
533.799805	5012.796875
531.813477	4985.114258
529.827148	4931.123535
527.839844	4988.689453
525.852539	5049.981934
523.864258	4879.538086
521.875977	4939.573730
519.886719	4933.232422
517.896484	4949.420410
515.906250	4834.233398
513.916016	4874.202637
511.924805	4915.399902
509.932617	4917.821777
507.940430	4896.497070
505.947266	4748.992676
503.954102	4785.181152
501.959961	4805.115723
499.964844	4780.097168
497.969727	4823.734375
495.974609	4761.291992
493.978516	4776.219727
491.981445	4772.433594
489.984375	4807.296875
487.986328	4820.952637
485.988281	4747.378418
483.989258	4686.299805
481.990234	4749.790039
479.990234	4754.729492
477.989258	4724.814453
475.988281	4640.163574
473.986328	4681.203125
471.984375	4791.865723
469.981445	4655.044434
467.978516	4627.680176
465.974609	4723.354004
463.970703	4669.896484
461.965820	4626.403320
459.959961	4632.599121
457.954102	4643.756348
455.948242	4573.002930
453.941406	4698.308105
451.933594	4553.158691
449.924805	4659.801270
447.916992	4637.463379
445.907227	4612.658691
443.897461	4608.929199
441.887695	4610.156250
439.876953	4591.568848
437.865234	4686.882812
435.853516	4647.244629
433.840820	4579.169922
431.828125	4502.473145
429.814453	4603.888672
427.799805	4551.951172
425.785156	4558.130371
423.770508	4550.714355
421.753906	4542.066406
419.738281	4486.495605
417.720703	4463.053711
415.704102	4511.210938
413.685547	4501.347168
411.666992	4454.480957
409.648438	4411.339355
407.628906	4537.130371
405.608398	4432.359375
403.587891	4513.714355
401.566406	4473.065430
399.544922	4538.353516
397.522461	4523.575195
395.499023	4478.031738
393.475586	4513.730469
391.452148	4396.859375
389.427734	4423.950195
387.402344	4496.520020
385.376953	4460.876953
383.350586	4446.144531
381.323242	4489.162109
379.296875	4376.170410
377.268555	4398.308105
375.240234	4400.792480
373.210938	4367.685547
371.181641	4383.671875
369.151367	4411.914551
367.121094	4437.688965
365.089844	4327.375000
363.057617	4496.546875
361.025391	4449.987793
358.993164	4447.549316
356.958984	4538.177246
354.925781	4435.329590
352.890625	4442.687012
350.855469	4582.182617
348.820312	4731.387207
346.784180	4609.030762
344.747070	4727.582520
342.709961	4677.403320
340.671875	4723.779785
338.633789	4837.314941
336.594727	4825.002930
334.555664	4850.544434
332.515625	4837.014160
330.474609	4947.952148
328.433594	4925.862305
326.391602	4914.759766
324.349609	4868.306152
322.306641	4941.326660
320.262695	4959.472656
318.218750	4892.333496
316.174805	4938.493164
314.129883	4951.753418
312.083984	5017.345703
310.038086	4975.816406
307.991211	4919.710449
305.943359	4999.850586
303.895508	5088.458008
301.846680	5183.093750
299.797852	5086.888184
297.748047	5179.041504
295.698242	5041.594238
293.647461	5225.989258
291.596680	5182.072266
289.544922	5327.492676
287.492188	5329.673340
285.439453	5283.336426
283.385742	5477.110352
281.332031	5505.915039
279.277344	5660.740234
277.221680	5611.937988
275.166016	5723.043945
273.109375	5728.740234
271.052734	5842.173340
268.995117	5851.463379
266.937500	5897.044922
264.878906	5790.194824
262.819336	5853.905273
260.759766	5829.330566
258.699219	5728.627930
256.638672	5589.316895
254.577148	5563.624512
252.515625	5430.471680
250.453125	5438.639160
248.389648	5276.626465
246.326172	5161.758789
244.261719	5114.503906
242.197266	5076.921387
240.131836	5012.836426
238.065430	4927.091309
235.999023	4893.204590
233.931641	4756.945312
231.864258	4717.101562
229.795898	4689.318848
227.727539	4730.155762
225.658203	4562.804199
223.587891	4589.216797
221.517578	4579.536621
219.446289	4543.411133
217.375000	4508.506836
215.302734	4478.427734
213.229492	4623.752930
211.156250	4504.787109
209.083008	4432.710449
207.007812	4439.892578
204.932617	4429.070312
202.857422	4465.040039
200.781250	4430.229980
198.704102	4400.234863
196.626953	4460.153809
194.548828	4385.828125
192.470703	4372.640137
190.391602	4378.621582
188.311523	4303.180664
186.231445	4396.557617
184.151367	4329.529297
182.069336	4312.783691
179.987305	4380.962891
177.905273	4400.081543
175.822266	4429.947266
173.738281	4449.041016
171.654297	4545.777832
169.569336	4491.972168
167.484375	4551.628418
165.398438	4565.890625
163.311523	4599.238281
161.224609	4658.813965
159.136719	4704.043945
157.048828	4653.857422
154.959961	4798.002930
152.870117	4858.647461
150.780273	4933.554688
148.689453	5019.140137
146.598633	5082.053223
144.506836	5029.461914
142.414062	5263.707520
140.321289	5287.237305
138.228516	5285.776367
136.133789	5359.228027
134.039062	5374.389160
131.944336	5475.108398
129.848633	5512.802246
127.751953	5575.417480
125.655273	5658.184082
123.557617	5564.023926
121.459961	5792.721680
119.361328	5805.356934
117.261719	5917.619141
115.162109	6044.048340
113.061523	6063.714355
110.959961	6269.436523
108.858398	6420.542969
106.756836	6546.690430
104.654297	6666.846191
102.550781	6971.613770
100.446289	7038.326172
98.341797	7243.433105
