#Wave		#Intensity
3203.165039	9650.313477
3201.841797	9740.591797
3200.517578	9802.320312
3199.192383	9811.382812
3197.868164	9638.127930
3196.542969	9831.372070
3195.217773	9699.519531
3193.891602	9744.280273
3192.565430	9839.721680
3191.239258	9959.524414
3189.913086	9747.050781
3188.585938	9842.423828
3187.258789	9810.177734
3185.930664	9755.436523
3184.603516	9828.238281
3183.275391	9700.398438
3181.946289	9703.824219
3180.618164	9754.098633
3179.289062	9811.842773
3177.959961	9818.985352
3176.629883	9670.688477
3175.299805	9889.427734
3173.969727	9711.231445
3172.639648	9793.245117
3171.308594	9708.700195
3169.977539	9568.076172
3168.646484	9678.117188
3167.314453	9659.094727
3165.982422	9827.012695
3164.650391	9987.377930
3163.317383	9979.507812
3161.984375	9831.536133
3160.651367	9840.511719
3159.317383	9825.208984
3157.983398	9752.042969
3156.649414	9740.498047
3155.315430	9904.355469
3153.980469	9894.645508
3152.645508	9931.566406
3151.309570	9860.320312
3149.974609	9708.942383
3148.638672	9850.251953
3147.301758	9933.731445
3145.965820	9879.312500
3144.628906	9780.216797
3143.291016	9973.518555
3141.954102	9969.391602
3140.616211	9957.820312
3139.278320	9884.845703
3137.939453	9821.206055
3136.600586	9880.354492
3135.261719	10125.433594
3133.922852	10011.583008
3132.583008	9847.596680
3131.243164	10055.348633
3129.902344	10084.646484
3128.562500	9957.903320
3127.221680	10031.778320
3125.879883	10033.209961
3124.539062	10094.039062
3123.197266	10117.724609
3121.855469	10050.485352
3120.512695	10014.810547
3119.169922	10196.128906
3117.827148	10075.147461
3116.483398	10024.659180
3115.139648	9857.438477
3113.795898	10031.213867
3112.452148	9997.439453
3111.107422	10071.094727
3109.762695	10126.200195
3108.417969	10131.299805
3107.072266	9930.965820
3105.726562	10089.680664
3104.380859	10137.329102
3103.034180	10055.493164
3101.687500	9986.637695
3100.340820	9921.509766
3098.993164	9978.391602
3097.645508	10194.155273
3096.297852	10204.763672
3094.949219	10080.540039
3093.601562	10052.391602
3092.251953	10046.408203
3090.903320	10271.134766
3089.553711	10119.328125
3088.204102	10139.159180
3086.854492	10090.736328
3085.503906	10241.486328
3084.153320	10191.217773
3082.801758	9986.147461
3081.451172	10289.761719
3080.099609	10064.495117
3078.747070	10145.083984
3077.395508	10157.500000
3076.042969	10223.300781
3074.689453	10125.255859
3073.336914	10049.335938
3071.983398	10036.003906
3070.629883	10180.861328
3069.275391	10097.624023
3067.920898	10181.728516
3066.566406	10140.803711
3065.211914	10274.475586
3063.856445	10228.035156
3062.500977	10194.471680
3061.144531	10181.125000
3059.789062	10277.942383
3058.431641	10231.540039
3057.075195	10309.949219
3055.717773	10395.661133
3054.360352	10618.907227
3053.002930	10442.258789
3051.644531	10461.874023
3050.286133	10514.473633
3048.927734	10506.572266
3047.568359	10555.471680
3046.209961	10474.290039
3044.849609	10490.208008
3043.490234	10487.808594
3042.129883	10468.934570
3040.769531	10342.090820
3039.408203	10497.080078
3038.046875	10549.556641
3036.685547	10503.250000
3035.324219	10597.753906
3033.961914	10491.129883
3032.599609	10538.074219
3031.236328	10581.341797
3029.873047	10683.045898
3028.509766	10625.809570
3027.146484	10632.505859
3025.782227	10511.411133
3024.417969	10538.205078
3023.053711	10606.955078
3021.688477	10703.036133
3020.323242	10700.583984
3018.958008	10802.068359
3017.591797	10733.963867
3016.225586	10707.809570
3014.859375	10772.776367
3013.492188	10675.575195
3012.125000	10787.873047
3010.757812	10774.474609
3009.390625	10726.491211
3008.022461	10918.782227
3006.653320	10545.062500
3005.285156	10824.630859
3003.916016	10760.306641
3002.546875	10736.017578
3001.176758	10962.624023
2999.807617	11038.265625
2998.436523	10939.421875
2997.066406	10864.241211
2995.695312	10874.461914
2994.324219	10982.738281
2992.953125	11063.730469
2991.581055	10979.510742
2990.208984	11165.716797
2988.835938	11130.496094
2987.463867	11316.580078
2986.090820	11228.750000
2984.716797	11385.715820
2983.343750	11350.473633
2981.969727	11443.912109
2980.594727	11383.306641
2979.220703	11420.540039
2977.845703	11653.336914
2976.469727	11799.121094
2975.094727	11847.091797
2973.718750	11880.562500
2972.341797	11883.258789
2970.965820	12207.928711
2969.588867	12252.141602
2968.211914	12471.709961
2966.833984	12785.171875
2965.456055	12583.441406
2964.078125	12670.885742
2962.699219	13117.752930
2961.321289	13176.136719
2959.941406	13160.466797
2958.562500	13207.981445
2957.182617	13302.395508
2955.802734	13346.245117
2954.421875	13489.286133
2953.041992	13379.777344
2951.660156	13547.985352
2950.279297	13784.614258
2948.897461	13765.219727
2947.515625	13763.851562
2946.132812	14142.573242
2944.750977	14000.641602
2943.368164	14103.648438
2941.984375	14141.802734
2940.600586	14349.110352
2939.216797	14297.223633
2937.833008	14554.766602
2936.448242	14583.785156
2935.063477	14722.469727
2933.678711	15078.603516
2932.292969	14762.410156
2930.907227	15053.684570
2929.521484	14947.818359
2928.134766	15398.754883
2926.748047	15346.723633
2925.360352	15472.434570
2923.973633	15725.513672
2922.585938	15599.872070
2921.197266	15653.677734
2919.809570	15784.578125
2918.420898	15956.658203
2917.031250	15780.879883
2915.642578	15882.980469
2914.252930	15888.273438
2912.863281	15909.685547
2911.472656	15843.327148
2910.082031	15742.976562
2908.691406	15814.529297
2907.299805	15787.609375
2905.908203	15694.495117
2904.516602	15461.884766
2903.124023	15597.818359
2901.731445	15472.623047
2900.338867	15354.634766
2898.945312	15393.981445
2897.551758	15272.489258
2896.158203	15394.012695
2894.764648	15052.889648
2893.370117	15056.552734
2891.974609	15235.165039
2890.580078	15251.276367
2889.184570	15251.318359
2887.789062	15292.390625
2886.392578	15117.630859
2884.996094	15089.169922
2883.599609	14948.407227
2882.202148	15142.789062
2880.804688	14788.245117
2879.407227	15128.656250
2878.009766	15107.343750
2876.611328	15077.136719
2875.212891	14988.194336
2873.813477	14993.624023
2872.414062	15258.850586
2871.014648	14977.787109
2869.614258	15025.899414
2868.213867	15013.528320
2866.813477	14938.938477
2865.413086	14928.369141
2864.011719	14825.400391
2862.610352	14679.839844
2861.208008	14848.726562
2859.805664	14889.679688
2858.403320	14282.613281
2857.000000	14369.824219
2855.597656	14517.328125
2854.193359	14299.295898
2852.790039	13966.074219
2851.385742	13854.666016
2849.981445	13837.270508
2848.576172	13603.641602
2847.170898	13538.464844
2845.765625	13530.009766
2844.360352	13420.597656
2842.954102	13568.003906
2841.546875	13430.304688
2840.140625	13156.379883
2838.733398	13263.041016
2837.326172	13219.271484
2835.917969	12986.264648
2834.509766	13052.215820
2833.101562	13098.688477
2831.693359	12761.583984
2830.284180	12816.935547
2828.875000	12660.254883
2827.464844	12627.288086
2826.054688	12497.210938
2824.644531	12670.856445
2823.233398	12427.863281
2821.822266	12453.210938
2820.411133	12397.389648
2819.000000	12221.652344
2817.587891	12231.156250
2816.174805	12349.961914
2814.762695	12103.850586
2813.349609	12097.512695
2811.936523	12147.553711
2810.522461	12042.569336
2809.108398	11979.896484
2807.694336	11725.349609
2806.279297	11835.272461
2804.864258	11728.694336
2803.449219	11745.319336
2802.033203	11795.354492
2800.617188	11692.374023
2799.201172	11540.214844
2797.785156	11809.971680
2796.368164	11691.242188
2794.950195	11897.589844
2793.533203	11534.744141
2792.115234	11505.717773
2790.696289	11671.581055
2789.278320	11602.164062
2787.859375	11699.488281
2786.439453	11337.105469
2785.020508	11481.802734
2783.600586	11544.011719
2782.179688	11444.895508
2780.759766	11515.846680
2779.338867	11395.753906
2777.916992	11319.514648
2776.496094	11395.697266
2775.074219	11349.261719
2773.651367	11350.118164
2772.228516	11251.203125
2770.805664	11243.330078
2769.382812	11279.198242
2767.958984	11344.783203
2766.535156	11231.968750
2765.111328	11398.934570
2763.686523	11289.653320
2762.261719	11271.291992
2760.835938	11219.744141
2759.411133	11246.820312
2757.985352	11343.732422
2756.558594	11286.962891
2755.131836	11280.837891
2753.705078	11328.810547
2752.278320	11186.595703
2750.850586	11234.566406
2749.422852	11202.297852
2747.994141	11164.813477
2746.565430	11104.686523
2745.136719	11163.083984
2743.708008	11224.937500
2742.278320	11119.549805
2740.847656	11176.159180
2739.417969	11142.209961
2737.987305	11310.181641
2736.556641	11147.443359
2735.125000	11038.712891
2733.693359	11114.403320
2732.261719	10983.124023
2730.829102	11067.482422
2729.396484	11150.062500
2727.963867	11196.111328
2726.530273	11167.432617
2725.096680	11097.082031
2723.663086	10920.835938
2722.228516	11109.250977
2720.793945	11068.466797
2719.359375	10975.642578
2717.923828	11139.622070
2716.488281	11026.008789
2715.052734	11214.174805
2713.616211	11065.922852
2712.179688	11070.265625
2710.743164	11131.789062
2709.305664	11096.265625
2707.868164	11019.190430
2706.429688	11084.142578
2704.991211	11123.095703
2703.552734	11264.148438
2702.114258	11012.330078
2700.674805	11115.280273
2699.235352	11145.538086
2697.794922	11165.406250
2696.354492	11067.706055
2694.914062	11156.715820
2693.473633	11124.724609
2692.032227	11189.492188
2690.589844	10884.614258
2689.148438	10945.952148
2687.706055	11155.727539
2686.262695	11089.250977
2684.820312	11122.886719
2683.376953	10946.038086
2681.932617	11064.202148
2680.489258	11173.687500
2679.044922	10940.059570
2677.599609	10918.533203
2676.155273	11133.083984
2674.709961	11077.066406
2673.263672	10912.569336
2671.817383	11047.759766
2670.371094	10905.723633
2668.924805	10899.720703
2667.477539	11196.562500
2666.030273	10947.930664
2664.582031	11000.396484
2663.133789	11044.238281
2661.685547	11062.272461
2660.237305	10899.836914
2658.788086	11034.737305
2657.337891	10994.350586
2655.888672	10885.284180
2654.438477	10865.554688
2652.988281	10784.035156
2651.537109	10836.419922
2650.085938	10864.756836
2648.634766	10987.429688
2647.182617	10947.115234
2645.730469	10862.237305
2644.277344	10832.254883
2642.825195	10776.578125
2641.372070	10746.627930
2639.917969	10800.628906
2638.463867	10784.386719
2637.009766	10711.648438
2635.555664	10715.974609
2634.100586	10769.928711
2632.645508	10793.058594
2631.189453	10853.810547
2629.733398	10654.581055
2628.277344	10799.115234
2626.820312	10625.631836
2625.363281	10821.373047
2623.906250	10694.096680
2622.448242	10737.699219
2620.990234	10948.642578
2619.532227	10778.739258
2618.073242	10817.166992
2616.614258	10864.109375
2615.155273	10779.651367
2613.695312	10642.354492
2612.235352	10919.527344
2610.774414	10809.540039
2609.313477	10680.852539
2607.852539	10893.059570
2606.391602	10456.029297
2604.929688	10676.704102
2603.467773	10805.314453
2602.004883	10944.078125
2600.541992	10747.450195
2599.079102	10867.440430
2597.615234	10822.342773
2596.151367	10719.431641
2594.687500	10626.772461
2593.222656	10780.678711
2591.757812	10754.336914
2590.291992	10782.386719
2588.827148	10908.960938
2587.361328	10901.289062
2585.894531	10779.843750
2584.427734	10874.069336
2582.960938	10844.343750
2581.493164	10668.693359
2580.025391	10723.855469
2578.557617	10804.432617
2577.089844	10752.703125
2575.621094	10940.040039
2574.151367	10666.263672
2572.682617	10755.248047
2571.212891	10820.470703
2569.742188	10780.650391
2568.271484	10942.355469
2566.800781	10888.979492
2565.330078	10998.111328
2563.858398	10761.995117
2562.386719	10872.795898
2560.914062	10829.631836
2559.441406	10918.379883
2557.968750	10909.035156
2556.495117	10855.749023
2555.022461	11059.328125
2553.547852	11004.340820
2552.073242	10951.067383
2550.598633	10879.245117
2549.124023	10788.886719
2547.648438	10950.041992
2546.172852	10868.144531
2544.697266	10938.108398
2543.220703	10842.758789
2541.744141	10806.466797
2540.266602	10830.878906
2538.789062	10888.985352
2537.311523	10856.076172
2535.833008	10868.664062
2534.354492	10958.715820
2532.875977	10711.975586
2531.396484	10847.470703
2529.916992	10922.314453
2528.437500	10817.089844
2526.957031	10727.052734
2525.476562	10832.141602
2523.995117	10674.887695
2522.514648	10764.808594
2521.032227	10715.199219
2519.550781	10769.782227
2518.068359	10656.363281
2516.585938	10672.307617
2515.102539	10564.000977
2513.619141	10690.742188
2512.135742	10634.503906
2510.651367	10571.580078
2509.166992	10735.128906
2507.681641	10673.885742
2506.196289	10626.083984
2504.710938	10693.959961
2503.225586	10507.084961
2501.739258	10653.697266
2500.251953	10498.744141
2498.765625	10621.842773
2497.278320	10530.587891
2495.791016	10615.122070
2494.302734	10713.001953
2492.814453	10516.389648
2491.325195	10599.192383
2489.835938	10538.145508
2488.346680	10406.912109
2486.857422	10444.550781
2485.367188	10472.145508
2483.876953	10541.490234
2482.385742	10443.782227
2480.894531	10474.693359
2479.403320	10452.168945
2477.911133	10506.428711
2476.418945	10430.509766
2474.926758	10486.415039
2473.433594	10483.918945
2471.940430	10501.432617
2470.446289	10480.595703
2468.952148	10456.434570
2467.458008	10557.251953
2465.962891	10646.358398
2464.467773	10722.098633
2462.972656	10418.172852
2461.476562	10593.808594
2459.980469	10591.285156
2458.484375	10615.382812
2456.987305	10556.296875
2455.490234	10625.292969
2453.992188	10705.893555
2452.494141	10633.527344
2450.996094	10812.136719
2449.497070	10457.326172
2447.998047	10805.321289
2446.499023	10701.442383
2444.999023	10820.091797
2443.499023	10671.441406
2441.999023	10765.146484
2440.498047	10797.419922
2438.997070	10620.680664
2437.495117	10896.742188
2435.993164	10829.483398
2434.491211	10886.570312
2432.988281	10600.604492
2431.485352	10921.135742
2429.982422	10507.758789
2428.478516	10589.703125
2426.974609	10809.016602
2425.469727	10861.055664
2423.964844	10807.165039
2422.459961	10622.605469
2420.955078	10871.469727
2419.449219	10849.030273
2417.942383	10691.040039
2416.436523	10784.346680
2414.928711	10733.850586
2413.421875	10678.422852
2411.914062	10753.495117
2410.406250	10807.065430
2408.897461	10750.005859
2407.389648	10825.004883
2405.879883	10711.866211
2404.371094	10549.291992
2402.861328	10612.737305
2401.350586	10765.189453
2399.839844	10622.497070
2398.329102	10684.229492
2396.818359	10625.654297
2395.306641	10562.163086
2393.794922	10661.741211
2392.282227	10514.300781
2390.769531	10549.643555
2389.256836	10738.016602
2387.743164	10631.793945
2386.229492	10509.171875
2384.714844	10407.985352
2383.200195	10481.122070
2381.685547	10394.783203
2380.169922	10510.611328
2378.655273	10470.306641
2377.138672	10540.069336
2375.622070	10404.532227
2374.105469	10392.188477
2372.588867	10240.335938
2371.071289	10387.208008
2369.553711	10410.966797
2368.035156	10351.065430
2366.516602	10268.235352
2364.998047	10318.233398
2363.478516	10217.420898
2361.958984	10252.658203
2360.439453	10319.002930
2358.918945	10347.646484
2357.398438	10196.160156
2355.876953	10185.528320
2354.355469	10366.386719
2352.833984	10270.633789
2351.311523	10277.984375
2349.789062	10260.798828
2348.266602	10184.757812
2346.743164	10335.971680
2345.219727	10308.975586
2343.695312	10229.708008
2342.170898	10152.111328
2340.646484	10257.457031
2339.121094	10511.328125
2337.595703	10286.808594
2336.070312	10308.816406
2334.543945	10239.447266
2333.017578	10225.569336
2331.490234	10511.752930
2329.962891	10499.444336
2328.435547	10364.894531
2326.907227	10535.136719
2325.378906	10429.965820
2323.850586	10385.110352
2322.321289	10345.160156
2320.791992	10424.072266
2319.261719	10545.262695
2317.731445	10412.548828
2316.201172	10567.846680
2314.669922	10427.056641
2313.138672	10632.681641
2311.607422	10571.599609
2310.075195	10606.436523
2308.542969	10511.266602
2307.009766	10622.449219
2305.476562	10520.823242
2303.943359	10592.980469
2302.409180	10658.608398
2300.875000	10654.418945
2299.340820	10664.833008
2297.805664	10827.721680
2296.269531	10672.669922
2294.734375	10674.962891
2293.198242	10709.672852
2291.661133	10711.954102
2290.125000	10667.248047
2288.587891	10812.077148
2287.049805	10705.830078
2285.511719	10683.821289
2283.973633	10893.284180
2282.434570	10678.669922
2280.895508	10748.897461
2279.356445	10775.419922
2277.816406	10787.374023
2276.276367	10786.388672
2274.735352	10723.984375
2273.194336	10844.205078
2271.653320	10922.363281
2270.111328	10693.612305
2268.569336	10902.559570
2267.027344	10817.597656
2265.484375	10865.018555
2263.941406	10825.284180
2262.397461	10795.247070
2260.853516	10771.673828
2259.309570	10999.642578
2257.764648	10829.339844
2256.219727	10858.956055
2254.673828	10688.766602
2253.127930	10961.634766
2251.582031	10918.725586
2250.036133	10772.793945
2248.488281	10818.479492
2246.941406	10888.282227
2245.393555	10866.343750
2243.845703	10833.155273
2242.296875	10841.792969
2240.749023	10784.509766
2239.199219	10977.995117
2237.649414	10710.196289
2236.099609	10741.343750
2234.549805	10732.320312
2232.999023	10919.204102
2231.448242	10731.944336
2229.896484	10703.667969
2228.344727	10973.859375
2226.792969	10753.031250
2225.240234	10905.999023
2223.687500	10844.032227
2222.133789	10995.299805
2220.580078	10673.708008
2219.026367	10772.066406
2217.471680	10873.580078
2215.916992	10862.939453
2214.361328	10637.753906
2212.806641	10771.238281
2211.250000	10818.239258
2209.694336	10890.815430
2208.137695	10824.194336
2206.580078	10799.182617
2205.022461	10745.404297
2203.464844	10883.458008
2201.907227	10887.211914
2200.348633	10759.958008
2198.789062	10790.890625
2197.229492	10617.411133
2195.669922	10800.025391
2194.110352	10569.167969
2192.549805	10813.934570
2190.989258	10760.261719
2189.427734	10728.943359
2187.866211	10729.528320
2186.303711	10765.183594
2184.741211	10568.133789
2183.178711	10707.377930
2181.616211	10566.190430
2180.052734	10673.513672
2178.488281	10554.691406
2176.923828	10642.861328
2175.359375	10602.082031
2173.794922	10586.779297
2172.229492	10507.856445
2170.663086	10611.851562
2169.097656	10633.121094
2167.530273	10541.525391
2165.963867	10505.592773
2164.396484	10614.250000
2162.829102	10578.315430
2161.260742	10507.461914
2159.692383	10423.941406
2158.123047	10616.629883
2156.554688	10480.757812
2154.984375	10540.079102
2153.415039	10348.779297
2151.844727	10397.001953
2150.273438	10381.791016
2148.702148	10542.505859
2147.130859	10416.351562
2145.559570	10588.066406
2143.987305	10417.617188
2142.414062	10533.831055
2140.840820	10556.593750
2139.267578	10470.148438
2137.694336	10503.989258
2136.120117	10640.627930
2134.544922	10511.525391
2132.970703	10308.176758
2131.394531	10495.340820
2129.819336	10476.981445
2128.243164	10615.036133
2126.666992	10593.496094
2125.089844	10529.331055
2123.512695	10441.514648
2121.934570	10541.560547
2120.357422	10625.777344
2118.778320	10536.421875
2117.200195	10464.458008
2115.621094	10542.321289
2114.041016	10646.945312
2112.460938	10582.884766
2110.880859	10572.424805
2109.299805	10702.166016
2107.718750	10583.015625
2106.137695	10736.306641
2104.555664	10643.963867
2102.973633	10611.465820
2101.390625	10531.783203
2099.807617	10733.694336
2098.224609	10938.650391
2096.640625	10610.541016
2095.056641	10805.995117
2093.471680	10707.500977
2091.886719	10668.752930
2090.301758	10765.096680
2088.715820	10690.235352
2087.129883	10687.624023
2085.542969	10722.680664
2083.956055	10705.938477
2082.369141	10828.819336
2080.781250	10757.166016
2079.193359	10591.470703
2077.604492	10712.718750
2076.015625	10791.592773
2074.426758	10658.910156
2072.836914	10922.593750
2071.247070	10694.414062
2069.656250	10763.818359
2068.065430	10740.836914
2066.474609	10636.492188
2064.882812	10726.195312
2063.291016	10753.289062
2061.698242	10689.671875
2060.105469	10646.408203
2058.512695	10704.757812
2056.918945	10838.083008
2055.325195	10608.910156
2053.731445	10656.291016
2052.136719	10794.210938
2050.541016	10816.543945
2048.946289	10740.542969
2047.349609	10764.437500
2045.753906	10866.313477
2044.157227	10885.485352
2042.560547	10703.516602
2040.962891	10791.301758
2039.365234	10743.463867
2037.766602	10650.466797
2036.167969	10803.617188
2034.569336	10819.655273
2032.969727	10759.399414
2031.370117	10901.512695
2029.769531	10696.547852
2028.168945	10776.376953
2026.568359	10579.317383
2024.966797	10739.991211
2023.365234	10819.748047
2021.762695	10831.081055
2020.160156	10811.331055
2018.557617	10661.103516
2016.954102	10969.093750
2015.350586	10961.743164
2013.746094	10855.049805
2012.141602	10697.195312
2010.537109	10876.095703
2008.931641	10859.464844
2007.326172	10818.028320
2005.719727	10689.791992
2004.113281	10933.613281
2002.506836	10831.752930
2000.899414	10894.158203
1999.291992	10936.398438
1997.683594	10797.445312
1996.075195	11053.321289
1994.466797	10920.597656
1992.857422	10896.250000
1991.248047	10924.509766
1989.637695	11068.747070
1988.027344	10796.989258
1986.416016	11128.227539
1984.805664	10814.860352
1983.193359	10963.613281
1981.582031	11039.694336
1979.968750	11064.774414
1978.356445	11032.717773
1976.743164	11056.242188
1975.129883	10968.648438
1973.515625	10982.918945
1971.901367	10933.943359
1970.286133	11211.895508
1968.670898	11138.220703
1967.055664	11201.750977
1965.439453	11024.875000
1963.823242	11196.233398
1962.207031	11144.192383
1960.589844	11164.541992
1958.971680	10927.811523
1957.353516	11242.145508
1955.735352	10987.045898
1954.117188	11130.467773
1952.497070	11009.311523
1950.877930	11003.522461
1949.257812	11103.792969
1947.637695	11054.954102
1946.016602	11156.697266
1944.395508	11097.116211
1942.774414	10968.463867
1941.152344	11130.021484
1939.530273	11216.293945
1937.907227	11116.858398
1936.284180	11068.093750
1934.660156	11143.579102
1933.036133	11251.224609
1931.412109	11213.190430
1929.787109	11155.250977
1928.162109	11241.361328
1926.536133	11405.548828
1924.910156	11264.907227
1923.284180	11184.042969
1921.657227	11247.097656
1920.030273	11183.109375
1918.402344	11174.226562
1916.774414	11241.822266
1915.146484	11239.044922
1913.517578	11245.439453
1911.888672	11398.553711
1910.258789	11270.440430
1908.628906	11229.463867
1906.998047	11342.757812
1905.367188	11488.057617
1903.736328	11306.619141
1902.104492	11294.666016
1900.472656	11374.260742
1898.839844	11356.193359
1897.207031	11428.107422
1895.574219	11426.804688
1893.940430	11576.398438
1892.306641	11364.767578
1890.671875	11299.493164
1889.037109	11301.264648
1887.402344	11325.875977
1885.766602	11361.129883
1884.129883	11534.862305
1882.494141	11448.319336
1880.856445	11431.792969
1879.219727	11497.398438
1877.582031	11459.580078
1875.944336	11566.185547
1874.305664	11406.791992
1872.666016	11498.162109
1871.027344	11366.203125
1869.387695	11389.201172
1867.747070	11506.314453
1866.106445	11577.834961
1864.465820	11438.395508
1862.824219	11403.701172
1861.182617	11485.806641
1859.541016	11510.250977
1857.898438	11557.421875
1856.254883	11409.061523
1854.611328	11550.172852
1852.967773	11538.217773
1851.324219	11468.719727
1849.678711	11468.901367
1848.034180	11437.294922
1846.388672	11458.668945
1844.743164	11501.211914
1843.096680	11483.230469
1841.450195	11722.326172
1839.802734	11577.306641
1838.155273	11630.353516
1836.507812	11579.110352
1834.859375	11468.976562
1833.210938	11579.399414
1831.561523	11475.357422
1829.912109	11608.364258
1828.261719	11584.351562
1826.612305	11462.277344
1824.960938	11385.515625
1823.309570	11560.633789
1821.658203	11705.509766
1820.006836	11526.246094
1818.354492	11475.158203
1816.701172	11493.396484
1815.047852	11392.635742
1813.394531	11565.979492
1811.740234	11486.325195
1810.085938	11605.375977
1808.430664	11576.908203
1806.775391	11626.676758
1805.120117	11568.137695
1803.463867	11544.208984
1801.807617	11643.549805
1800.150391	11649.667969
1798.493164	11642.259766
1796.835938	11785.058594
1795.177734	11848.196289
1793.518555	11707.125977
1791.860352	11744.734375
1790.200195	11801.830078
1788.541016	11911.402344
1786.880859	11885.936523
1785.219727	11822.997070
1783.558594	11860.524414
1781.897461	11764.649414
1780.235352	11908.549805
1778.573242	11770.766602
1776.910156	11964.011719
1775.247070	11814.303711
1773.583984	11814.350586
1771.919922	11877.246094
1770.255859	11823.416992
1768.590820	11980.505859
1766.925781	11992.469727
1765.259766	12140.465820
1763.593750	11931.184570
1761.927734	12215.092773
1760.260742	11907.302734
1758.593750	12208.994141
1756.925781	12090.978516
1755.257812	12053.626953
1753.588867	12004.353516
1751.919922	12084.905273
1750.250977	11968.525391
1748.581055	11931.237305
1746.911133	11925.274414
1745.240234	12075.812500
1743.569336	12077.264648
1741.897461	12129.366211
1740.225586	12154.631836
1738.553711	12005.672852
1736.880859	12011.602539
1735.208008	12066.640625
1733.534180	12041.304688
1731.860352	12126.054688
1730.185547	12212.249023
1728.510742	12127.422852
1726.835938	12167.493164
1725.160156	12109.466797
1723.484375	12146.547852
1721.807617	12406.399414
1720.130859	12161.256836
1718.453125	12156.727539
1716.775391	12388.179688
1715.097656	12258.957031
1713.418945	12476.914062
1711.740234	12571.669922
1710.060547	12421.737305
1708.380859	12442.341797
1706.700195	12236.202148
1705.019531	12379.809570
1703.338867	12584.072266
1701.657227	12492.070312
1699.975586	12703.601562
1698.292969	12679.696289
1696.610352	12629.167969
1694.926758	12565.349609
1693.243164	12634.666992
1691.559570	12797.099609
1689.875000	12755.456055
1688.189453	12718.266602
1686.504883	12725.417969
1684.818359	12732.565430
1683.132812	13030.622070
1681.446289	13045.068359
1679.758789	13117.070312
1678.071289	12913.093750
1676.383789	13156.218750
1674.695312	13015.751953
1673.006836	13263.149414
1671.317383	13094.716797
1669.627930	13128.271484
1667.938477	13158.862305
1666.248047	13417.754883
1664.556641	13418.801758
1662.865234	13306.481445
1661.173828	13513.621094
1659.481445	13686.810547
1657.789062	13550.964844
1656.096680	13543.146484
1654.403320	13605.911133
1652.708984	13680.404297
1651.014648	13897.417969
1649.320312	13868.945312
1647.625000	14123.993164
1645.929688	14017.639648
1644.233398	14088.992188
1642.537109	14108.932617
1640.840820	14168.484375
1639.143555	14354.175781
1637.445312	14334.429688
1635.748047	14323.490234
1634.048828	14316.952148
1632.350586	14474.567383
1630.651367	14601.331055
1628.951172	14537.593750
1627.250977	14425.558594
1625.549805	14621.049805
1623.849609	14730.079102
1622.147461	14698.563477
1620.445312	14582.205078
1618.743164	14733.575195
1617.041016	14963.832031
1615.337891	14835.794922
1613.633789	15043.984375
1611.929688	15000.739258
1610.225586	15099.215820
1608.520508	15200.562500
1606.814453	15104.743164
1605.109375	15370.984375
1603.403320	15272.249023
1601.696289	15335.509766
1599.989258	15474.586914
1598.281250	15741.918945
1596.573242	15745.236328
1594.865234	15821.426758
1593.156250	16075.349609
1591.447266	16030.501953
1589.737305	16355.606445
1588.027344	16309.251953
1586.317383	16283.297852
1584.606445	16306.836914
1582.894531	16500.591797
1581.182617	16294.237305
1579.470703	16396.279297
1577.757812	16230.758789
1576.044922	16434.505859
1574.331055	16370.775391
1572.617188	16234.437500
1570.902344	16345.072266
1569.187500	16409.185547
1567.472656	16378.907227
1565.756836	16472.001953
1564.041016	16556.341797
1562.324219	16597.121094
1560.607422	16463.857422
1558.889648	16477.091797
1557.171875	16416.394531
1555.453125	16449.916016
1553.734375	16335.652344
1552.015625	16308.344727
1550.295898	16385.304688
1548.575195	16353.651367
1546.855469	16430.556641
1545.133789	16261.453125
1543.413086	16478.652344
1541.691406	16407.957031
1539.968750	16457.294922
1538.246094	16513.833984
1536.522461	16077.581055
1534.799805	16264.206055
1533.075195	16346.744141
1531.350586	16322.385742
1529.625977	16153.680664
1527.900391	16145.256836
1526.174805	16258.035156
1524.449219	16262.568359
1522.721680	16030.590820
1520.995117	16065.453125
1519.267578	16196.869141
1517.540039	15962.197266
1515.811523	16118.061523
1514.082031	15749.579102
1512.353516	16079.645508
1510.623047	15820.762695
1508.893555	15959.228516
1507.163086	15802.662109
1505.431641	15847.558594
1503.700195	15751.497070
1501.968750	15822.259766
1500.236328	15770.809570
1498.502930	15719.383789
1496.770508	15777.166992
1495.036133	15784.649414
1493.302734	15704.536133
1491.567383	15878.553711
1489.833008	16091.231445
1488.097656	15958.008789
1486.361328	15958.256836
1484.625000	16027.338867
1482.888672	16294.238281
1481.151367	16271.461914
1479.414062	16579.716797
1477.675781	16529.656250
1475.937500	16505.402344
1474.198242	16935.068359
1472.458984	16850.595703
1470.718750	16734.677734
1468.978516	16561.583984
1467.238281	17023.693359
1465.497070	16909.246094
1463.754883	16909.230469
1462.012695	17133.623047
1460.270508	17077.818359
1458.527344	17103.470703
1456.784180	16979.142578
1455.041016	17120.462891
1453.295898	16964.785156
1451.551758	16930.492188
1449.806641	16800.621094
1448.060547	16863.382812
1446.314453	17098.667969
1444.568359	16713.644531
1442.821289	16756.421875
1441.074219	16588.277344
1439.326172	16666.675781
1437.578125	16673.822266
1435.829102	16591.255859
1434.080078	16414.777344
1432.330078	16234.117188
1430.580078	16227.130859
1428.830078	16315.451172
1427.079102	16264.359375
1425.327148	16352.622070
1423.575195	16338.499023
1421.823242	16038.762695
1420.070312	16155.422852
1418.317383	16250.717773
1416.563477	15982.466797
1414.809570	16135.955078
1413.054688	16285.106445
1411.299805	16174.536133
1409.544922	16366.152344
1407.789062	16330.773438
1406.032227	16437.185547
1404.275391	16493.931641
1402.518555	16542.146484
1400.760742	16649.833984
1399.002930	16788.623047
1397.244141	16549.289062
1395.485352	16678.121094
1393.725586	16617.250000
1391.965820	16713.453125
1390.205078	16378.193359
1388.444336	16323.095703
1386.683594	16601.671875
1384.921875	16564.916016
1383.159180	16295.029297
1381.396484	16347.366211
1379.633789	16172.293945
1377.870117	16224.632812
1376.106445	16436.453125
1374.341797	16265.720703
1372.577148	15986.439453
1370.811523	16065.565430
1369.045898	16014.916992
1367.279297	15943.146484
1365.512695	16078.594727
1363.745117	16011.068359
1361.977539	15811.158203
1360.209961	16000.048828
1358.441406	15888.943359
1356.672852	15959.474609
1354.903320	15968.048828
1353.132812	16224.230469
1351.363281	16435.269531
1349.591797	16549.173828
1347.821289	16369.204102
1346.048828	16431.062500
1344.277344	16342.542969
1342.504883	16033.525391
1340.731445	16188.105469
1338.958008	16161.488281
1337.183594	16216.294922
1335.409180	16113.903320
1333.634766	16073.291016
1331.859375	15870.001953
1330.083984	15811.242188
1328.307617	15791.761719
1326.530273	15608.317383
1324.753906	15665.958984
1322.975586	15631.118164
1321.198242	15578.088867
1319.418945	15602.087891
1317.640625	15460.911133
1315.861328	15493.320312
1314.081055	15503.329102
1312.300781	15534.309570
1310.519531	15379.305664
1308.738281	15569.659180
1306.957031	15662.084961
1305.174805	15393.993164
1303.392578	15725.268555
1301.609375	15594.147461
1299.825195	15665.525391
1298.041016	15597.291992
1296.256836	15562.581055
1294.471680	15604.612305
1292.686523	15621.516602
1290.900391	15503.164062
1289.114258	15582.810547
1287.328125	15504.939453
1285.541016	15448.005859
1283.752930	15516.457031
1281.964844	15460.938477
1280.175781	15497.329102
1278.386719	15427.923828
1276.597656	15231.932617
1274.807617	15386.590820
1273.016602	15329.779297
1271.226562	15310.535156
1269.434570	15174.540039
1267.642578	15316.541016
1265.850586	15209.786133
1264.057617	15396.146484
1262.264648	15011.711914
1260.470703	15009.229492
1258.676758	14923.475586
1256.881836	14952.926758
1255.086914	14926.875000
1253.291992	15054.767578
1251.495117	15084.157227
1249.699219	14922.254883
1247.902344	14936.417969
1246.104492	14884.076172
1244.306641	14905.164062
1242.508789	14901.316406
1240.709961	14915.464844
1238.910156	15002.951172
1237.110352	14936.816406
1235.310547	14942.641602
1233.509766	15171.098633
1231.708984	14684.694336
1229.907227	15019.519531
1228.105469	14943.787109
1226.302734	14924.729492
1224.500000	14965.066406
1222.696289	14968.101562
1220.892578	14885.552734
1219.087891	14970.023438
1217.283203	15032.374023
1215.477539	14849.182617
1213.671875	14947.381836
1211.866211	15057.934570
1210.059570	14884.521484
1208.251953	14682.261719
1206.444336	14740.449219
1204.636719	14921.169922
1202.828125	14807.166992
1201.018555	14672.575195
1199.208984	14469.248047
1197.399414	14501.270508
1195.588867	14595.165039
1193.777344	14480.011719
1191.966797	14579.359375
1190.154297	14414.791992
1188.341797	14487.998047
1186.529297	14588.635742
1184.715820	14741.401367
1182.902344	14695.022461
1181.087891	14589.649414
1179.273438	14458.258789
1177.458008	14276.178711
1175.642578	14505.621094
1173.826172	14462.098633
1172.009766	14451.495117
1170.193359	14428.561523
1168.375000	14363.168945
1166.557617	14352.594727
1164.739258	14289.991211
1162.919922	14354.731445
1161.100586	14403.012695
1159.281250	14534.729492
1157.460938	14488.552734
1155.639648	14595.561523
1153.818359	14347.048828
1151.997070	14490.939453
1150.174805	14511.772461
1148.351562	14502.540039
1146.528320	14244.744141
1144.705078	14430.833008
1142.880859	14492.606445
1141.056641	14342.819336
1139.231445	14474.161133
1137.405273	14584.973633
1135.579102	14223.914062
1133.752930	14214.763672
1131.925781	14215.157227
1130.098633	14174.671875
1128.270508	14138.292969
1126.442383	13997.070312
1124.613281	13959.391602
1122.784180	13962.566406
1120.954102	13923.553711
1119.124023	14036.927734
1117.292969	13768.060547
1115.461914	13731.843750
1113.629883	13752.738281
1111.797852	13700.234375
1109.964844	13795.849609
1108.131836	13722.984375
1106.298828	13650.155273
1104.464844	13501.336914
1102.629883	13427.244141
1100.794922	13601.499023
1098.958984	13770.236328
1097.123047	13711.044922
1095.286133	13632.901367
1093.449219	13607.661133
1091.612305	13499.769531
1089.774414	13784.817383
1087.935547	13580.769531
1086.096680	13502.754883
1084.257812	13573.688477
1082.417969	13495.713867
1080.577148	13324.420898
1078.736328	13645.582031
1076.895508	13472.984375
1075.053711	13704.708984
1073.210938	13355.124023
1071.368164	13543.515625
1069.525391	13571.050781
1067.681641	13664.747070
1065.836914	13474.854492
1063.992188	13483.484375
1062.147461	13345.015625
1060.301758	13290.263672
1058.456055	13294.885742
1056.609375	13140.388672
1054.761719	13135.608398
1052.914062	13136.219727
1051.066406	13186.681641
1049.217773	13016.206055
1047.369141	13046.469727
1045.519531	13122.492188
1043.668945	13135.212891
1041.818359	13100.830078
1039.967773	13048.975586
1038.116211	13123.567383
1036.264648	13054.251953
1034.412109	13116.702148
1032.559570	13091.769531
1030.706055	12894.880859
1028.851562	12921.055664
1026.998047	13074.781250
1025.142578	12970.675781
1023.287109	13022.306641
1021.431641	12833.737305
1019.575195	12980.612305
1017.718750	12833.722656
1015.861328	12800.867188
1014.003906	12841.745117
1012.145508	12849.101562
1010.287109	12904.678711
1008.427734	12889.244141
1006.567383	13005.031250
1004.708008	13167.607422
1002.846680	13281.919922
1000.985352	13334.629883
999.124023	12968.664062
997.261719	12803.464844
995.399414	12832.191406
993.536133	12720.572266
991.672852	12629.051758
989.808594	12745.958008
987.944336	12554.319336
986.079102	12648.486328
984.213867	12726.584961
982.347656	12631.173828
980.480469	12738.582031
978.614258	12752.576172
976.746094	12762.561523
974.877930	12724.553711
973.009766	12615.934570
971.140625	12635.270508
969.271484	12623.959961
967.401367	12615.317383
965.531250	12613.334961
963.660156	12527.506836
961.788086	12695.852539
959.916992	12462.395508
958.043945	12407.256836
956.170898	12449.197266
954.297852	12375.481445
952.423828	12275.226562
950.549805	12384.915039
948.674805	12255.491211
946.798828	12302.720703
944.923828	12351.252930
943.046875	12355.964844
941.169922	12128.505859
939.292969	12171.735352
937.415039	12256.046875
935.536133	12235.587891
933.657227	12252.246094
931.778320	12414.637695
929.898438	12305.401367
928.018555	12420.018555
926.137695	12337.314453
924.255859	12531.272461
922.374023	12506.799805
920.492188	12396.354492
918.609375	12443.343750
916.725586	12249.675781
914.841797	12427.533203
912.958008	12302.684570
911.073242	12417.019531
909.187500	12193.179688
907.301758	12197.887695
905.416016	12283.114258
903.528320	12186.175781
901.641602	12188.239258
899.753906	12216.680664
897.865234	12169.941406
895.976562	12123.225586
894.087891	12094.985352
892.197266	12187.979492
890.307617	12269.067383
888.416992	12198.666016
886.525391	12295.504883
884.633789	12466.000000
882.741211	12253.483398
880.848633	12137.111328
878.955078	12051.048828
877.061523	12204.331055
875.166992	11994.731445
873.272461	11853.577148
871.376953	11924.017578
869.481445	12073.225586
867.584961	12017.510742
865.688477	11808.231445
863.791016	11874.666992
861.893555	11942.377930
859.995117	11777.878906
858.096680	11846.889648
856.197266	11956.503906
854.296875	11654.506836
852.396484	11903.005859
850.496094	11867.107422
848.594727	11827.296875
846.693359	11924.981445
844.791016	11921.825195
842.887695	11899.040039
840.984375	12035.872070
839.081055	11826.037109
837.176758	11962.813477
835.271484	11875.983398
833.366211	11806.187500
831.460938	11854.013672
829.553711	11802.544922
827.647461	11787.665039
825.740234	11719.267578
823.832031	11720.076172
821.923828	11731.322266
820.014648	11782.999023
818.105469	11796.828125
816.195312	11744.157227
814.285156	11735.829102
812.374023	11754.868164
810.462891	11627.993164
808.550781	11666.583984
806.638672	11692.132812
804.725586	11647.375977
802.812500	11515.454102
800.898438	11563.135742
798.983398	11319.448242
797.069336	11385.358398
795.153320	11361.536133
793.237305	11400.106445
791.321289	11430.859375
789.404297	11247.274414
787.486328	11304.020508
785.568359	11194.563477
783.650391	11264.269531
781.730469	11148.391602
779.811523	11234.934570
777.891602	11234.541992
775.970703	11121.352539
774.049805	11137.838867
772.127930	11093.411133
770.206055	11116.370117
768.283203	11105.642578
766.360352	11128.583984
764.436523	11116.562500
762.512695	11281.836914
760.587891	11036.905273
758.663086	11277.125977
756.737305	11010.341797
754.810547	10962.166992
752.883789	11087.192383
750.957031	11060.984375
749.029297	11135.539062
747.100586	11128.700195
745.171875	10899.812500
743.243164	11091.796875
741.313477	10972.714844
739.382812	11155.544922
737.452148	11009.425781
735.520508	11107.054688
733.588867	11131.161133
731.656250	11008.356445
729.723633	11033.762695
727.790039	11025.668945
725.856445	11051.054688
723.921875	11109.893555
721.987305	11162.265625
720.051758	10907.129883
718.115234	10951.808594
716.178711	11001.605469
714.242188	10970.388672
712.304688	11015.011719
710.366211	10893.869141
708.427734	10838.297852
706.489258	10682.594727
704.549805	10818.389648
702.609375	10735.927734
700.668945	10648.376953
698.727539	10790.483398
696.786133	10679.877930
694.843750	10775.744141
692.901367	10701.087891
690.958008	10659.787109
689.013672	10627.474609
687.069336	10693.791016
685.125000	10592.344727
683.179688	10763.594727
681.233398	10761.996094
679.287109	10729.693359
677.340820	10682.058594
675.393555	10679.202148
673.445312	10736.424805
671.497070	10753.999023
669.547852	10541.592773
667.598633	10764.848633
665.648438	10708.336914
663.698242	10778.235352
661.747070	10823.847656
659.795898	10794.155273
657.843750	10695.597656
655.890625	10724.614258
653.937500	10635.049805
651.984375	10736.712891
650.030273	10727.464844
648.075195	10728.412109
646.120117	10642.758789
644.164062	10695.926758
642.208008	10456.312500
640.250977	10476.414062
638.293945	10439.257812
636.335938	10422.468750
634.377930	10258.197266
632.418945	10449.928711
630.458984	10111.637695
628.499023	10286.788086
626.539062	10267.516602
624.578125	10293.965820
622.616211	10236.618164
620.654297	10058.737305
618.691406	10163.879883
616.728516	9978.501953
614.764648	10050.638672
612.800781	10011.175781
610.835938	9936.247070
608.871094	10036.208008
606.905273	10004.377930
604.938477	10158.718750
602.971680	10031.918945
601.004883	10034.286133
599.037109	10091.060547
597.068359	10051.663086
595.099609	9925.024414
593.129883	9927.413086
591.160156	9751.579102
589.189453	9957.457031
587.218750	9843.609375
585.247070	9890.216797
583.275391	9869.878906
581.302734	9710.701172
579.329102	9700.516602
577.355469	9747.108398
575.380859	9717.999023
573.406250	9788.516602
571.431641	9677.471680
569.455078	9504.733398
567.479492	9606.746094
565.501953	9537.401367
563.524414	9567.573242
561.546875	9499.533203
559.568359	9479.354492
557.589844	9551.035156
555.609375	9550.976562
553.629883	9659.065430
551.649414	9471.655273
549.667969	9334.619141
547.686523	9499.218750
545.704102	9411.237305
543.721680	9359.721680
541.738281	9524.178711
539.753906	9570.560547
537.769531	9660.834961
535.785156	9520.236328
533.799805	9516.413086
531.813477	9498.799805
529.827148	9637.876953
527.839844	9420.991211
525.852539	9481.086914
523.864258	9368.311523
521.875977	9368.286133
519.886719	9281.887695
517.896484	9572.215820
515.906250	9403.234375
513.916016	9553.287109
511.924805	9319.377930
509.932617	9266.856445
507.940430	9348.084961
505.947266	9376.792969
503.954102	9325.544922
501.959961	9305.541992
499.964844	9296.783203
497.969727	9394.114258
495.974609	9258.067383
493.978516	9158.267578
491.981445	9214.401367
489.984375	9108.431641
487.986328	9019.967773
485.988281	9081.074219
483.989258	9119.724609
481.990234	9087.367188
479.990234	9154.627930
477.989258	9056.308594
475.988281	9138.471680
473.986328	9073.796875
471.984375	9053.927734
469.981445	9090.018555
467.978516	8930.938477
465.974609	9067.696289
463.970703	9008.092773
461.965820	8993.231445
459.959961	9105.025391
457.954102	9042.974609
455.948242	9019.425781
453.941406	9014.499023
451.933594	9041.821289
449.924805	8860.814453
447.916992	9003.447266
445.907227	8874.596680
443.897461	8781.745117
441.887695	8812.804688
439.876953	8785.647461
437.865234	8804.308594
435.853516	8821.719727
433.840820	8841.596680
431.828125	8788.481445
429.814453	8730.447266
427.799805	8676.152344
425.785156	8766.491211
423.770508	8698.623047
421.753906	8902.548828
419.738281	8748.234375
417.720703	8601.409180
415.704102	8673.126953
413.685547	8791.694336
411.666992	8609.200195
409.648438	8736.351562
407.628906	8589.724609
405.608398	8501.107422
403.587891	8527.137695
401.566406	8579.021484
399.544922	8533.583008
397.522461	8574.354492
395.499023	8565.867188
393.475586	8488.470703
391.452148	8515.686523
389.427734	8663.416016
387.402344	8416.374023
385.376953	8473.084961
383.350586	8523.620117
381.323242	8413.185547
379.296875	8464.936523
377.268555	8514.201172
375.240234	8543.798828
373.210938	8381.931641
371.181641	8405.412109
369.151367	8544.174805
367.121094	8376.305664
365.089844	8592.230469
363.057617	8645.037109
361.025391	8609.599609
358.993164	8575.404297
356.958984	8705.316406
354.925781	8778.842773
352.890625	8759.313477
350.855469	8699.416992
348.820312	9000.400391
346.784180	9077.430664
344.747070	9125.077148
342.709961	9291.251953
340.671875	9423.121094
338.633789	9435.207031
336.594727	9596.272461
334.555664	9823.176758
332.515625	9832.699219
330.474609	9542.042969
328.433594	9838.305664
326.391602	9796.591797
324.349609	9696.377930
322.306641	9783.924805
320.262695	9755.661133
318.218750	9828.522461
316.174805	9904.997070
314.129883	9925.421875
312.083984	9832.633789
310.038086	10072.103516
307.991211	9934.311523
305.943359	10095.782227
303.895508	10230.414062
301.846680	10059.869141
299.797852	10363.349609
297.748047	10412.752930
295.698242	10460.914062
293.647461	10518.760742
291.596680	10633.626953
289.544922	10731.439453
287.492188	10860.741211
285.439453	10903.855469
283.385742	11070.625977
281.332031	11443.381836
279.277344	11502.052734
277.221680	11564.324219
275.166016	11742.837891
273.109375	12036.288086
271.052734	12068.094727
268.995117	12210.013672
266.937500	12169.158203
264.878906	12214.203125
262.819336	12135.879883
260.759766	12128.923828
258.699219	11893.550781
256.638672	11791.210938
254.577148	11402.652344
252.515625	11202.687500
250.453125	11002.832031
248.389648	10801.876953
246.326172	10637.229492
244.261719	10434.070312
242.197266	10255.140625
240.131836	10023.261719
238.065430	10024.124023
235.999023	9934.615234
233.931641	9830.699219
231.864258	9488.395508
229.795898	9725.370117
227.727539	9424.203125
225.658203	9381.904297
223.587891	9314.366211
221.517578	9299.779297
219.446289	9145.734375
217.375000	9110.765625
215.302734	8950.847656
213.229492	8919.554688
211.156250	8953.128906
209.083008	8918.248047
207.007812	8910.992188
204.932617	8853.340820
202.857422	8734.539062
200.781250	8784.904297
198.704102	8804.066406
196.626953	8825.614258
194.548828	8783.639648
192.470703	8594.333984
190.391602	8875.810547
188.311523	8728.488281
186.231445	8657.854492
184.151367	8998.911133
182.069336	8868.422852
179.987305	8822.921875
177.905273	8858.750977
175.822266	9046.368164
173.738281	8944.687500
171.654297	9052.130859
169.569336	9092.630859
167.484375	9172.510742
165.398438	9215.339844
163.311523	9289.172852
161.224609	9445.283203
159.136719	9588.186523
157.048828	9667.813477
154.959961	9845.144531
152.870117	9984.240234
150.780273	10229.292969
148.689453	10262.200195
146.598633	10418.923828
144.506836	10518.419922
142.414062	10688.075195
140.321289	10771.972656
138.228516	10980.712891
136.133789	11128.692383
134.039062	11314.628906
131.944336	11315.065430
129.848633	11441.440430
127.751953	11747.098633
125.655273	11755.723633
123.557617	11937.662109
121.459961	12068.467773
119.361328	12390.218750
117.261719	12492.356445
115.162109	12848.198242
113.061523	13076.995117
110.959961	13479.881836
108.858398	13542.499023
106.756836	13923.709961
104.654297	14475.227539
102.550781	14754.155273
100.446289	15274.363281
98.341797	15593.139648
