#Wave		#Intensity
3203.165039	2089.553467
3201.841797	2070.745605
3200.517578	2068.396729
3199.192383	2122.447021
3197.868164	2176.472656
3196.542969	2249.264648
3195.217773	2130.400146
3193.891602	2077.327393
3192.565430	2093.757568
3191.239258	2070.754883
3189.913086	2120.964111
3188.585938	2165.520752
3187.258789	2058.092285
3185.930664	2067.004639
3184.603516	2083.414062
3183.275391	2047.320312
3181.946289	2048.730957
3180.618164	2121.352295
3179.289062	2079.653564
3177.959961	2116.645020
3176.629883	2121.783691
3175.299805	2196.194336
3173.969727	2053.435059
3172.639648	2131.570068
3171.308594	2174.120361
3169.977539	2115.639160
3168.646484	2135.731201
3167.314453	2195.078857
3165.982422	2138.501465
3164.650391	2134.278809
3163.317383	2156.216309
3161.984375	2196.824463
3160.651367	2233.678711
3159.317383	2164.085449
3157.983398	2143.059814
3156.649414	2166.836182
3155.315430	2147.685303
3153.980469	2063.250000
3152.645508	2172.821777
3151.309570	2120.117920
3149.974609	2097.265869
3148.638672	2162.023193
3147.301758	2172.712646
3145.965820	2155.452637
3144.628906	2104.674316
3143.291016	2169.370605
3141.954102	2144.675781
3140.616211	2216.778320
3139.278320	2082.293457
3137.939453	2208.329346
3136.600586	2124.127441
3135.261719	2207.325928
3133.922852	2102.711182
3132.583008	2150.560547
3131.243164	2159.363281
3129.902344	2186.740723
3128.562500	2206.675781
3127.221680	2176.461182
3125.879883	2205.672363
3124.539062	2195.889648
3123.197266	2243.640625
3121.855469	2233.853516
3120.512695	2170.277344
3119.169922	2190.183350
3117.827148	2213.788330
3116.483398	2265.187256
3115.139648	2179.422363
3113.795898	2204.865967
3112.452148	2182.135254
3111.107422	2216.826172
3109.762695	2231.134033
3108.417969	2271.351074
3107.072266	2172.745850
3105.726562	2270.316895
3104.380859	2195.804688
3103.034180	2128.724121
3101.687500	2257.671631
3100.340820	2207.244873
3098.993164	2199.349121
3097.645508	2261.672119
3096.297852	2250.072754
3094.949219	2317.896240
3093.601562	2300.749512
3092.251953	2226.381592
3090.903320	2238.793701
3089.553711	2225.366455
3088.204102	2162.135010
3086.854492	2237.262695
3085.503906	2240.440430
3084.153320	2191.996826
3082.801758	2237.575195
3081.451172	2307.088379
3080.099609	2278.927490
3078.747070	2254.463135
3077.395508	2204.229248
3076.042969	2328.916992
3074.689453	2256.601318
3073.336914	2313.132324
3071.983398	2235.333496
3070.629883	2240.341309
3069.275391	2287.642334
3067.920898	2226.448730
3066.566406	2286.597656
3065.211914	2249.321777
3063.856445	2292.902344
3062.500977	2187.678711
3061.144531	2170.651123
3059.789062	2232.579102
3058.431641	2301.821289
3057.075195	2222.383301
3055.717773	2306.273682
3054.360352	2236.042236
3053.002930	2327.226318
3051.644531	2242.354004
3050.286133	2274.836426
3048.927734	2309.136719
3047.568359	2347.085449
3046.209961	2209.162842
3044.849609	2298.395752
3043.490234	2226.462158
3042.129883	2350.430664
3040.769531	2359.043457
3039.408203	2274.336914
3038.046875	2374.427734
3036.685547	2326.333496
3035.324219	2353.228027
3033.961914	2292.364014
3032.599609	2295.494629
3031.236328	2329.686035
3029.873047	2303.577637
3028.509766	2279.307373
3027.146484	2384.690430
3025.782227	2347.633789
3024.417969	2354.396484
3023.053711	2395.825195
3021.688477	2415.343262
3020.323242	2360.074219
3018.958008	2390.531982
3017.591797	2430.090576
3016.225586	2422.243408
3014.859375	2392.533203
3013.492188	2479.429688
3012.125000	2322.225098
3010.757812	2352.648438
3009.390625	2414.006592
3008.022461	2375.230957
3006.653320	2463.850830
3005.285156	2490.574707
3003.916016	2424.524902
3002.546875	2423.968750
3001.176758	2394.324463
2999.807617	2453.755615
2998.436523	2494.987793
2997.066406	2479.881104
2995.695312	2390.311035
2994.324219	2467.847412
2992.953125	2525.377197
2991.581055	2412.261475
2990.208984	2420.781250
2988.835938	2576.251709
2987.463867	2494.037109
2986.090820	2435.434570
2984.716797	2567.225098
2983.343750	2416.189941
2981.969727	2486.310059
2980.594727	2480.303467
2979.220703	2517.771729
2977.845703	2616.794434
2976.469727	2451.436279
2975.094727	2637.312988
2973.718750	2633.087402
2972.341797	2585.441162
2970.965820	2599.317383
2969.588867	2611.378906
2968.211914	2697.563232
2966.833984	2557.757568
2965.456055	2643.914307
2964.078125	2878.186279
2962.699219	2693.275879
2961.321289	2757.670166
2959.941406	2769.674316
2958.562500	2803.333984
2957.182617	2791.860840
2955.802734	2861.584961
2954.421875	2869.945801
2953.041992	2894.533447
2951.660156	2816.336670
2950.279297	2821.095947
2948.897461	2809.633301
2947.515625	2956.732666
2946.132812	2954.250488
2944.750977	2924.754639
2943.368164	2888.070068
2941.984375	2941.408447
2940.600586	2836.347412
2939.216797	2943.651855
2937.833008	3040.113281
2936.448242	2929.705811
2935.063477	2982.972412
2933.678711	3000.260986
2932.292969	3021.136230
2930.907227	3056.375732
2929.521484	3068.245850
2928.134766	3135.785645
2926.748047	3012.963867
2925.360352	3032.015625
2923.973633	3156.947998
2922.585938	3071.886475
2921.197266	3184.194092
2919.809570	3126.067627
2918.420898	3177.345703
2917.031250	3196.331787
2915.642578	3209.932129
2914.252930	3185.897217
2912.863281	3136.793213
2911.472656	3200.545410
2910.082031	3063.720703
2908.691406	3091.656250
2907.299805	3221.595947
2905.908203	3154.645508
2904.516602	3148.549805
2903.124023	3226.518066
2901.731445	3225.772705
2900.338867	3205.362549
2898.945312	3072.362061
2897.551758	3103.815918
2896.158203	3079.874512
2894.764648	3070.232178
2893.370117	3076.665039
2891.974609	3184.853027
2890.580078	3035.976562
2889.184570	3015.646240
2887.789062	3048.844727
2886.392578	3092.729004
2884.996094	3074.182129
2883.599609	3068.122559
2882.202148	3142.271240
2880.804688	3056.011475
2879.407227	3032.144775
2878.009766	3088.438477
2876.611328	3117.995361
2875.212891	3053.183594
2873.813477	3105.872803
2872.414062	3154.978760
2871.014648	3004.808350
2869.614258	3132.174316
2868.213867	3049.650635
2866.813477	3073.833740
2865.413086	3128.221191
2864.011719	2997.776611
2862.610352	3014.847900
2861.208008	3031.910889
2859.805664	3084.480957
2858.403320	3021.629395
2857.000000	2944.607178
2855.597656	2982.963867
2854.193359	2879.374268
2852.790039	2953.202148
2851.385742	2934.784424
2849.981445	2880.917969
2848.576172	2889.112061
2847.170898	2842.368896
2845.765625	2910.803467
2844.360352	2798.540771
2842.954102	2881.120117
2841.546875	2894.614990
2840.140625	2918.723145
2838.733398	2852.571289
2837.326172	2766.989014
2835.917969	2824.715820
2834.509766	2772.778076
2833.101562	2765.062500
2831.693359	2785.630859
2830.284180	2807.956787
2828.875000	2846.172363
2827.464844	2834.913574
2826.054688	2738.896973
2824.644531	2732.964355
2823.233398	2758.805664
2821.822266	2682.284180
2820.411133	2806.922852
2819.000000	2763.938477
2817.587891	2819.725830
2816.174805	2729.156494
2814.762695	2772.587402
2813.349609	2687.357178
2811.936523	2806.534180
2810.522461	2770.654053
2809.108398	2754.161133
2807.694336	2802.816406
2806.279297	2765.201172
2804.864258	2757.519043
2803.449219	2695.300781
2802.033203	2750.959473
2800.617188	2695.805420
2799.201172	2635.402344
2797.785156	2654.123779
2796.368164	2681.622803
2794.950195	2684.512207
2793.533203	2796.301514
2792.115234	2656.921631
2790.696289	2631.723877
2789.278320	2683.768311
2787.859375	2572.588867
2786.439453	2726.379150
2785.020508	2722.236084
2783.600586	2719.848389
2782.179688	2696.423096
2780.759766	2678.266846
2779.338867	2668.880859
2777.916992	2682.274902
2776.496094	2762.221680
2775.074219	2752.822021
2773.651367	2671.645996
2772.228516	2704.279541
2770.805664	2626.651855
2769.382812	2640.035645
2767.958984	2656.911133
2766.535156	2738.480957
2765.111328	2737.842285
2763.686523	2655.052490
2762.261719	2661.423096
2760.835938	2730.685303
2759.411133	2726.554688
2757.985352	2785.291504
2756.558594	2681.635742
2755.131836	2735.118896
2753.705078	2696.089355
2752.278320	2597.760498
2750.850586	2717.505615
2749.422852	2687.226074
2747.994141	2695.315674
2746.565430	2726.060303
2745.136719	2589.500977
2743.708008	2658.583740
2742.278320	2767.695068
2740.847656	2714.807129
2739.417969	2701.985840
2737.987305	2633.472412
2736.556641	2639.817627
2735.125000	2673.995605
2733.693359	2609.014893
2732.261719	2686.656982
2730.829102	2689.506104
2729.396484	2688.877197
2727.963867	2634.379150
2726.530273	2771.010498
2725.096680	2596.671875
2723.663086	2677.679932
2722.228516	2640.595703
2720.793945	2777.096924
2719.359375	2686.212646
2717.923828	2704.667725
2716.488281	2695.362305
2715.052734	2725.944580
2713.616211	2666.362061
2712.179688	2657.071777
2710.743164	2715.366211
2709.305664	2709.533203
2707.868164	2740.075195
2706.429688	2723.848877
2704.991211	2769.953857
2703.552734	2738.150391
2702.114258	2685.596436
2700.674805	2728.217529
2699.235352	2661.853271
2697.794922	2758.064453
2696.354492	2745.316650
2694.914062	2698.006836
2693.473633	2712.926025
2692.032227	2695.014404
2690.589844	2756.560547
2689.148438	2805.990234
2687.706055	2772.531494
2686.262695	2768.429443
2684.820312	2769.505615
2683.376953	2736.078125
2681.932617	2785.453857
2680.489258	2829.632812
2679.044922	2753.115967
2677.599609	2785.217041
2676.155273	2782.840088
2674.709961	2682.269531
2673.263672	2709.196777
2671.817383	2665.513184
2670.371094	2735.468994
2668.924805	2733.105469
2667.477539	2885.605469
2666.030273	2738.703125
2664.582031	2695.062744
2663.133789	2728.819092
2661.685547	2748.807129
2660.237305	2720.662354
2658.788086	2732.051025
2657.337891	2760.612793
2655.888672	2747.941650
2654.438477	2767.900635
2652.988281	2736.350098
2651.537109	2788.910645
2650.085938	2714.473389
2648.634766	2698.395996
2647.182617	2781.798584
2645.730469	2784.573730
2644.277344	2816.489258
2642.825195	2855.244873
2641.372070	2669.522705
2639.917969	2684.311768
2638.463867	2687.105469
2637.009766	2732.703125
2635.555664	2713.229980
2634.100586	2787.893555
2632.645508	2737.617920
2631.189453	2706.182373
2629.733398	2796.186279
2628.277344	2747.653320
2626.820312	2731.621582
2625.363281	2732.687256
2623.906250	2759.381104
2622.448242	2779.229492
2620.990234	2607.795654
2619.532227	2740.357422
2618.073242	2726.055908
2616.614258	2780.024170
2615.155273	2706.003174
2613.695312	2705.365234
2612.235352	2747.362061
2610.774414	2649.530762
2609.313477	2688.111084
2607.852539	2742.010742
2606.391602	2698.769775
2604.929688	2708.353516
2603.467773	2777.536377
2602.004883	2693.455566
2600.541992	2767.715088
2599.079102	2760.255127
2597.615234	2732.382080
2596.151367	2680.708496
2594.687500	2760.001953
2593.222656	2778.052246
2591.757812	2709.406250
2590.291992	2814.126465
2588.827148	2765.891357
2587.361328	2712.583252
2585.894531	2767.981445
2584.427734	2802.980225
2582.960938	2804.015625
2581.493164	2855.958496
2580.025391	2828.139160
2578.557617	2757.928955
2577.089844	2833.585693
2575.621094	2785.446533
2574.151367	2744.109375
2572.682617	2934.943848
2571.212891	2752.977051
2569.742188	2864.113037
2568.271484	2780.462158
2566.800781	2840.750488
2565.330078	2735.141357
2563.858398	2842.791260
2562.386719	2828.584961
2560.914062	2860.051270
2559.441406	2808.646484
2557.968750	2921.247803
2556.495117	2836.049561
2555.022461	2879.311523
2553.547852	2909.038086
2552.073242	2786.746094
2550.598633	2789.463379
2549.124023	2844.511475
2547.648438	2884.343750
2546.172852	2863.412598
2544.697266	2744.648926
2543.220703	2855.310303
2541.744141	2900.159668
2540.266602	2874.186523
2538.789062	2812.833252
2537.311523	2904.838623
2535.833008	2877.197510
2534.354492	2802.413330
2532.875977	2840.475098
2531.396484	2851.585205
2529.916992	2857.641113
2528.437500	2803.122070
2526.957031	2846.193115
2525.476562	2774.884766
2523.995117	2933.954834
2522.514648	2897.958984
2521.032227	2873.743896
2519.550781	2841.139160
2518.068359	2827.027100
2516.585938	2831.394287
2515.102539	2953.286133
2513.619141	2870.335938
2512.135742	2820.988037
2510.651367	2887.428711
2509.166992	2843.131836
2507.681641	2842.456787
2506.196289	2826.692627
2504.710938	2872.954102
2503.225586	2867.244385
2501.739258	2844.783447
2500.251953	2829.032959
2498.765625	2751.330322
2497.278320	2872.891602
2495.791016	2882.251709
2494.302734	2817.978027
2492.814453	2855.787109
2491.325195	2828.346680
2489.835938	2784.197510
2488.346680	2790.222656
2486.857422	2911.571045
2485.367188	2847.380859
2483.876953	2893.480469
2482.385742	2901.143311
2480.894531	2755.180176
2479.403320	2873.052734
2477.911133	2884.052246
2476.418945	2836.644775
2474.926758	2835.969727
2473.433594	2900.339844
2471.940430	2924.660889
2470.446289	2950.636963
2468.952148	2899.935791
2467.458008	2875.917969
2465.962891	2863.572266
2464.467773	2959.485840
2462.972656	2890.514404
2461.476562	2886.496582
2459.980469	2889.137451
2458.484375	2918.398438
2456.987305	2817.895752
2455.490234	2920.333984
2453.992188	2949.565918
2452.494141	2962.161133
2450.996094	2986.383301
2449.497070	2937.488525
2447.998047	3011.536865
2446.499023	2917.820557
2444.999023	2907.162842
2443.499023	2886.551025
2441.999023	2826.120605
2440.498047	2953.197266
2438.997070	2950.833984
2437.495117	2945.155029
2435.993164	3037.295410
2434.491211	3044.858154
2432.988281	3082.245361
2431.485352	3036.778076
2429.982422	3045.991211
2428.478516	3013.801270
2426.974609	2994.870850
2425.469727	3075.257812
2423.964844	3096.035156
2422.459961	3045.665283
2420.955078	2950.662109
2419.449219	2991.296387
2417.942383	3013.726074
2416.436523	3032.839355
2414.928711	3063.509766
2413.421875	2968.614746
2411.914062	3005.891602
2410.406250	3020.033936
2408.897461	2971.438965
2407.389648	3066.451904
2405.879883	2978.268311
2404.371094	2951.162354
2402.861328	2986.739502
2401.350586	3028.894531
2399.839844	3046.302734
2398.329102	2982.948730
2396.818359	3026.721436
2395.306641	3022.702637
2393.794922	2997.276611
2392.282227	2996.559326
2390.769531	2974.443115
2389.256836	3006.644775
2387.743164	2843.042236
2386.229492	2995.335938
2384.714844	2997.907715
2383.200195	3046.512695
2381.685547	2932.367676
2380.169922	3005.614258
2378.655273	3034.466797
2377.138672	3009.102051
2375.622070	2960.759277
2374.105469	2951.841064
2372.588867	2993.808594
2371.071289	2943.862793
2369.553711	2907.064941
2368.035156	2937.531006
2366.516602	2967.982422
2364.998047	2968.910400
2363.478516	2910.833984
2361.958984	3057.609131
2360.439453	2937.287354
2358.918945	3020.110840
2357.398438	2849.095459
2355.876953	2961.366211
2354.355469	2932.833008
2352.833984	2961.581543
2351.311523	2998.495117
2349.789062	3079.547852
2348.266602	2987.245605
2346.743164	2893.352783
2345.219727	3025.033936
2343.695312	2991.630127
2342.170898	3018.680908
2340.646484	2960.797607
2339.121094	3015.598389
2337.595703	3055.681641
2336.070312	3012.517822
2334.543945	3011.793945
2333.017578	3073.053467
2331.490234	3052.746094
2329.962891	3021.035645
2328.435547	2999.120117
2326.907227	2995.140137
2325.378906	3046.553711
2323.850586	3099.570801
2322.321289	3051.602295
2320.791992	3052.496338
2319.261719	3128.259766
2317.731445	3029.874512
2316.201172	3035.652832
2314.669922	3060.945557
2313.138672	3052.078857
2311.607422	3085.482910
2310.075195	3104.243652
2308.542969	3163.616455
2307.009766	3151.483643
2305.476562	3160.469482
2303.943359	3101.255615
2302.409180	3167.064453
2300.875000	3098.139404
2299.340820	3086.035645
2297.805664	3189.108643
2296.269531	3147.796875
2294.734375	3108.126221
2293.198242	3113.861328
2291.661133	3161.728027
2290.125000	3204.710938
2288.587891	3174.782227
2287.049805	3102.763672
2285.511719	3195.917969
2283.973633	3232.375732
2282.434570	3162.012695
2280.895508	3162.868164
2279.356445	3344.876709
2277.816406	3171.044922
2276.276367	3199.380127
2274.735352	3293.968506
2273.194336	3267.319580
2271.653320	3243.914307
2270.111328	3170.451904
2268.569336	3248.807861
2267.027344	3249.637939
2265.484375	3266.606934
2263.941406	3248.069336
2262.397461	3260.190186
2260.853516	3249.726562
2259.309570	3237.655029
2257.764648	3377.116211
2256.219727	3211.917236
2254.673828	3227.253662
2253.127930	3326.344727
2251.582031	3320.709717
2250.036133	3137.972656
2248.488281	3299.789307
2246.941406	3323.130615
2245.393555	3257.972412
2243.845703	3179.977539
2242.296875	3280.518799
2240.749023	3218.632812
2239.199219	3217.854492
2237.649414	3254.035645
2236.099609	3235.576660
2234.549805	3252.461670
2232.999023	3214.742188
2231.448242	3241.255859
2229.896484	3295.041260
2228.344727	3289.430176
2226.792969	3222.861328
2225.240234	3254.157715
2223.687500	3279.024902
2222.133789	3310.291992
2220.580078	3160.443359
2219.026367	3359.961914
2217.471680	3216.580566
2215.916992	3300.680908
2214.361328	3285.471436
2212.806641	3239.855225
2211.250000	3205.463379
2209.694336	3201.486816
2208.137695	3219.905762
2206.580078	3236.716309
2205.022461	3240.728027
2203.464844	3207.974854
2201.907227	3339.831543
2200.348633	3251.152832
2198.789062	3350.989990
2197.229492	3267.141602
2195.669922	3298.278320
2194.110352	3257.576660
2192.549805	3253.594971
2190.989258	3230.471436
2189.427734	3263.180908
2187.866211	3278.334229
2186.303711	3341.303955
2184.741211	3271.961914
2183.178711	3240.893799
2181.616211	3345.243408
2180.052734	3240.913086
2178.488281	3211.466553
2176.923828	3217.053955
2175.359375	3240.144043
2173.794922	3212.309326
2172.229492	3222.663818
2170.663086	3293.442871
2169.097656	3225.867676
2167.530273	3171.041016
2165.963867	3205.230713
2164.396484	3280.710449
2162.829102	3227.498047
2161.260742	3258.472412
2159.692383	3221.166260
2158.123047	3272.760010
2156.554688	3227.533936
2154.984375	3247.372314
2153.415039	3403.598389
2151.844727	3139.555420
2150.273438	3284.634521
2148.702148	3231.534912
2147.130859	3297.296631
2145.559570	3274.316895
2143.987305	3256.099365
2142.414062	3275.889893
2140.840820	3287.756104
2139.267578	3279.042969
2137.694336	3376.338623
2136.120117	3241.065430
2134.544922	3267.159668
2132.970703	3166.760498
2131.394531	3233.956055
2129.819336	3264.772949
2128.243164	3303.473877
2126.666992	3241.069824
2125.089844	3257.649902
2123.512695	3218.967285
2121.934570	3379.170654
2120.357422	3291.560791
2118.778320	3334.929688
2117.200195	3269.453125
2115.621094	3290.730713
2114.041016	3334.067139
2112.460938	3237.117676
2110.880859	3360.802246
2109.299805	3378.885254
2107.718750	3344.989014
2106.137695	3311.109131
2104.555664	3288.263916
2102.973633	3370.867432
2101.390625	3280.365723
2099.807617	3350.346924
2098.224609	3363.682129
2096.640625	3257.525879
2095.056641	3316.458008
2093.471680	3348.647705
2091.886719	3327.406494
2090.301758	3383.136475
2088.715820	3440.409180
2087.129883	3434.859131
2085.542969	3280.210938
2083.956055	3401.799072
2082.369141	3397.830322
2080.781250	3367.201416
2079.193359	3319.340088
2077.604492	3284.042236
2076.015625	3407.046631
2074.426758	3425.015137
2072.836914	3339.591309
2071.247070	3388.887451
2069.656250	3394.321289
2068.065430	3371.577148
2066.474609	3345.714355
2064.882812	3332.379883
2063.291016	3412.898438
2061.698242	3279.145996
2060.105469	3304.920410
2058.512695	3343.185547
2056.918945	3329.866455
2055.325195	3393.101562
2053.731445	3361.034424
2052.136719	3394.562988
2050.541016	3301.629395
2048.946289	3313.306152
2047.349609	3376.466553
2045.753906	3395.918213
2044.157227	3371.693115
2042.560547	3442.587646
2040.962891	3399.657471
2039.365234	3373.890137
2037.766602	3441.615234
2036.167969	3366.005859
2034.569336	3372.966797
2032.969727	3379.924072
2031.370117	3481.822266
2029.769531	3298.906250
2028.168945	3380.549561
2026.568359	3345.503174
2024.966797	3434.869141
2023.365234	3396.717041
2021.762695	3433.183838
2020.160156	3438.556641
2018.557617	3437.712646
2016.954102	3491.225098
2015.350586	3462.420410
2013.746094	3464.674805
2012.141602	3437.442139
2010.537109	3421.082764
2008.931641	3469.878906
2007.326172	3476.780518
2005.719727	3511.584961
2004.113281	3427.022949
2002.506836	3446.325928
2000.899414	3389.706787
1999.291992	3429.143799
1997.683594	3467.012695
1996.075195	3458.420166
1994.466797	3545.789307
1992.857422	3510.876465
1991.248047	3500.731445
1989.637695	3618.956055
1988.027344	3546.941650
1986.416016	3479.599854
1984.805664	3597.741455
1983.193359	3604.581543
1981.582031	3592.882080
1979.968750	3536.404053
1978.356445	3555.604492
1976.743164	3471.379150
1975.129883	3678.848877
1973.515625	3690.285400
1971.901367	3582.952637
1970.286133	3577.444336
1968.670898	3494.857666
1967.055664	3569.517822
1965.439453	3593.292480
1963.823242	3613.974121
1962.207031	3617.704102
1960.589844	3621.432129
1958.971680	3603.606934
1957.353516	3630.420410
1955.735352	3632.602783
1954.117188	3527.109375
1952.497070	3596.979980
1950.877930	3525.370605
1949.257812	3675.134277
1947.637695	3646.567627
1946.016602	3585.752197
1944.395508	3693.918945
1942.774414	3673.045654
1941.152344	3713.589355
1939.530273	3626.724609
1937.907227	3659.586914
1936.284180	3689.364502
1934.660156	3682.319336
1933.036133	3586.346924
1931.412109	3655.975342
1929.787109	3720.971436
1928.162109	3600.545166
1926.536133	3697.689209
1924.910156	3724.341064
1923.284180	3599.409424
1921.657227	3702.603271
1920.030273	3738.414795
1918.402344	3633.459473
1916.774414	3650.915771
1915.146484	3596.494385
1913.517578	3598.663086
1911.888672	3620.698975
1910.258789	3754.266846
1908.628906	3750.283691
1906.998047	3604.269287
1905.367188	3636.968750
1903.736328	3663.545898
1902.104492	3795.410645
1900.472656	3750.225830
1898.839844	3653.201416
1897.207031	3621.798096
1895.574219	3764.213379
1893.940430	3738.894531
1892.306641	3670.920410
1890.671875	3730.950195
1889.037109	3749.826660
1887.402344	3739.762207
1885.766602	3682.510010
1884.129883	3730.300537
1882.494141	3840.451660
1880.856445	3769.525391
1879.219727	3735.133789
1877.582031	3799.587402
1875.944336	3850.328369
1874.305664	3765.791504
1872.666016	3862.094238
1871.027344	3703.167725
1869.387695	3808.549072
1867.747070	3711.959229
1866.106445	3759.608887
1864.465820	3837.583252
1862.824219	3765.330078
1861.182617	3765.912842
1859.541016	3777.109131
1857.898438	3823.166016
1856.254883	3754.017822
1854.611328	3774.298828
1852.967773	3724.888916
1851.324219	3776.969238
1849.678711	3795.714355
1848.034180	3826.559326
1846.388672	3739.351562
1844.743164	3711.190674
1843.096680	3801.021973
1841.450195	3795.541504
1839.802734	3808.205078
1838.155273	3811.793457
1836.507812	3785.158936
1834.859375	3847.666504
1833.210938	3827.076660
1831.561523	3785.358154
1829.912109	3807.060547
1828.261719	3855.916748
1826.612305	3773.483643
1824.960938	3752.936279
1823.309570	3768.591553
1821.658203	3770.669922
1820.006836	3733.557373
1818.354492	3872.771729
1816.701172	3808.533936
1815.047852	3836.203613
1813.394531	3729.843994
1811.740234	3703.323730
1810.085938	3848.391357
1808.430664	3830.882324
1806.775391	3795.330078
1805.120117	3850.030273
1803.463867	3880.646240
1801.807617	3825.566162
1800.150391	3818.602295
1798.493164	3856.714355
1796.835938	3824.210938
1795.177734	3836.773438
1793.518555	3775.765625
1791.860352	3888.895264
1790.200195	3880.423584
1788.541016	3927.462158
1786.880859	3861.991943
1785.219727	3940.499023
1783.558594	3822.590576
1781.897461	3838.123047
1780.235352	3901.593506
1778.573242	4026.447021
1776.910156	3803.803955
1775.247070	3796.866455
1773.583984	3950.091309
1771.919922	3838.369385
1770.255859	3937.648193
1768.590820	3920.213135
1766.925781	3932.692627
1765.259766	3952.640381
1763.593750	3951.653809
1761.927734	3850.555908
1760.260742	3997.483643
1758.593750	4008.433105
1756.925781	4013.404541
1755.257812	3988.519043
1753.588867	4075.570557
1751.919922	3993.986572
1750.250977	4028.787109
1748.581055	3951.728271
1746.911133	3971.612793
1745.240234	3988.505859
1743.569336	3972.608154
1741.897461	3962.676758
1740.225586	3998.920166
1738.553711	3966.651611
1736.880859	4092.191895
1735.208008	3955.738770
1733.534180	4000.873291
1731.860352	3999.872559
1730.185547	4068.766846
1728.510742	4020.172852
1726.835938	3995.385010
1725.160156	3979.525146
1723.484375	3959.216064
1721.807617	4115.663086
1720.130859	4027.024170
1718.453125	4054.221924
1716.775391	4076.953369
1715.097656	4096.705566
1713.418945	4073.428467
1711.740234	4060.543945
1710.060547	4170.726562
1708.380859	4059.992188
1706.700195	4097.504883
1705.019531	4114.256836
1703.338867	4165.067383
1701.657227	4128.483887
1699.975586	4165.940430
1698.292969	4209.298340
1696.610352	4117.981934
1694.926758	4220.501465
1693.243164	4280.080566
1691.559570	4160.720703
1689.875000	4174.459473
1688.189453	4322.673828
1686.504883	4343.751465
1684.818359	4330.844727
1683.132812	4307.607422
1681.446289	4209.086914
1679.758789	4346.772949
1678.071289	4270.425781
1676.383789	4254.601074
1674.695312	4371.522949
1673.006836	4442.675781
1671.317383	4375.224121
1669.627930	4408.021973
1667.938477	4464.377441
1666.248047	4576.678711
1664.556641	4448.880859
1662.865234	4453.651855
1661.173828	4530.544434
1659.481445	4488.202637
1657.789062	4551.806152
1656.096680	4633.026855
1654.403320	4611.276367
1652.708984	4557.194336
1651.014648	4595.730469
1649.320312	4775.301270
1647.625000	4688.901367
1645.929688	4601.075195
1644.233398	4748.207520
1642.537109	4749.948730
1640.840820	4723.806641
1639.143555	4735.821777
1637.445312	4759.564453
1635.748047	4784.761230
1634.048828	4815.808594
1632.350586	4792.611816
1630.651367	4753.308594
1628.951172	4801.917969
1627.250977	4841.715332
1625.549805	4847.816406
1623.849609	4722.173828
1622.147461	4808.789062
1620.445312	4902.675781
1618.743164	4888.276367
1617.041016	4843.175293
1615.337891	4893.122559
1613.633789	4833.426270
1611.929688	4789.833008
1610.225586	4795.929199
1608.520508	4915.938965
1606.814453	4958.502441
1605.109375	4970.389648
1603.403320	4839.252441
1601.696289	4976.636230
1599.989258	4884.945801
1598.281250	5068.912598
1596.573242	5114.286133
1594.865234	4971.615234
1593.156250	5086.933105
1591.447266	5057.970215
1589.737305	5173.207031
1588.027344	4962.229004
1586.317383	5068.696777
1584.606445	5106.710449
1582.894531	5264.010254
1581.182617	5057.584473
1579.470703	5129.017578
1577.757812	5123.360352
1576.044922	5145.321289
1574.331055	5280.613770
1572.617188	5199.378418
1570.902344	5177.730957
1569.187500	5291.130859
1567.472656	5259.308594
1565.756836	5240.563477
1564.041016	5369.820312
1562.324219	5171.188477
1560.607422	5396.107910
1558.889648	5238.163574
1557.171875	5283.220703
1555.453125	5339.847168
1553.734375	5305.175293
1552.015625	5299.487793
1550.295898	5272.083008
1548.575195	5288.119629
1546.855469	5325.856934
1545.133789	5320.167480
1543.413086	5207.439453
1541.691406	5152.613281
1539.968750	5287.211426
1538.246094	5287.317383
1536.522461	5246.961914
1534.799805	5213.849609
1533.075195	5257.302246
1531.350586	5235.754883
1529.625977	5276.291504
1527.900391	5181.145508
1526.174805	5224.560547
1524.449219	5145.341797
1522.721680	5247.869629
1520.995117	5180.218262
1519.267578	5128.456055
1517.540039	5216.498535
1515.811523	5151.786621
1514.082031	5143.277832
1512.353516	5202.450195
1510.623047	5250.074707
1508.893555	5238.667969
1507.163086	5143.814453
1505.431641	5182.786133
1503.700195	5172.841797
1501.968750	5138.460449
1500.236328	5078.223633
1498.502930	5132.977051
1496.770508	5124.490234
1495.036133	5183.512207
1493.302734	5110.399902
1491.567383	5155.039062
1489.833008	5191.043945
1488.097656	5102.201172
1486.361328	5258.693848
1484.625000	5158.405273
1482.888672	5168.563965
1481.151367	5131.416016
1479.414062	5058.461426
1477.675781	5101.586914
1475.937500	5200.547852
1474.198242	5124.766113
1472.458984	5200.765625
1470.718750	5145.058105
1468.978516	5073.639648
1467.238281	5189.644531
1465.497070	5179.743652
1463.754883	5211.308594
1462.012695	5137.085449
1460.270508	5098.624023
1458.527344	5243.045410
1456.784180	5223.142578
1455.041016	5146.134277
1453.295898	5210.490234
1451.551758	5166.347656
1449.806641	5192.141113
1448.060547	5205.082520
1446.314453	5101.078613
1444.568359	5156.807129
1442.821289	5122.709961
1441.074219	5134.229004
1439.326172	5184.207031
1437.578125	5288.280273
1435.829102	5107.520996
1434.080078	5164.583496
1432.330078	5167.535645
1430.580078	5132.070312
1428.830078	5190.503906
1427.079102	5267.394531
1425.327148	5207.759766
1423.575195	5173.739746
1421.823242	5254.836914
1420.070312	5217.979980
1418.317383	5260.676270
1416.563477	5213.896484
1414.809570	5077.708496
1413.054688	5233.940918
1411.299805	5214.159668
1409.544922	5256.800293
1407.789062	5263.965820
1406.032227	5275.380859
1404.275391	5259.859375
1402.518555	5224.506836
1400.760742	5200.505859
1399.002930	5196.343750
1397.244141	5308.289551
1395.485352	5193.687500
1393.725586	5309.821289
1391.965820	5200.936035
1390.205078	5384.901855
1388.444336	5182.720703
1386.683594	5185.636719
1384.921875	5168.762695
1383.159180	5245.156738
1381.396484	5190.133301
1379.633789	5197.279297
1377.870117	5143.707031
1376.106445	5196.030762
1374.341797	5286.429688
1372.577148	5348.564941
1370.811523	5261.155273
1369.045898	5170.969238
1367.279297	5281.017578
1365.512695	5302.215332
1363.745117	5231.813477
1361.977539	5316.403320
1360.209961	5261.524902
1358.441406	5257.360352
1356.672852	5232.083984
1354.903320	5195.561523
1353.132812	5251.912109
1351.363281	5174.613281
1349.591797	5256.250488
1347.821289	5329.410156
1346.048828	5193.120605
1344.277344	5225.510742
1342.504883	5241.027344
1340.731445	5197.551758
1338.958008	5179.370117
1337.183594	5081.189941
1335.409180	5148.646973
1333.634766	5112.252441
1331.859375	5068.863281
1330.083984	5064.757324
1328.307617	5102.708496
1326.530273	4986.477051
1324.753906	5088.879395
1322.975586	5118.389160
1321.198242	5122.676270
1319.418945	5030.357422
1317.640625	5020.666992
1315.861328	5073.950684
1314.081055	4973.320312
1312.300781	5039.174805
1310.519531	5151.137695
1308.738281	5124.651367
1306.957031	5031.097168
1305.174805	5112.236328
1303.392578	5205.904785
1301.609375	5127.761230
1299.825195	5000.794434
1298.041016	5166.995605
1296.256836	5154.503418
1294.471680	5009.490723
1292.686523	5055.620117
1290.900391	5044.558594
1289.114258	5150.593262
1287.328125	5067.046387
1285.541016	5078.281250
1283.752930	5074.187988
1281.964844	5024.143555
1280.175781	5064.613770
1278.386719	5020.164062
1276.597656	5003.565430
1274.807617	5081.567383
1273.016602	5081.648438
1271.226562	5026.115723
1269.434570	4999.800293
1267.642578	5067.993652
1265.850586	4931.927246
1264.057617	4948.711914
1262.264648	4976.595703
1260.470703	5033.616699
1258.676758	5044.809570
1256.881836	5011.596191
1255.086914	4854.945312
1253.291992	4899.456055
1251.495117	5070.106934
1249.699219	4935.737305
1247.902344	4916.449707
1246.104492	5165.927246
1244.306641	4970.696289
1242.508789	4933.413086
1240.709961	4955.671875
1238.910156	4961.311523
1237.110352	4915.756836
1235.310547	4950.450195
1233.509766	4853.755859
1231.708984	4918.860840
1229.907227	4847.102051
1228.105469	4917.701172
1226.302734	4916.430176
1224.500000	4879.252441
1222.696289	4889.036621
1220.892578	4948.507812
1219.087891	4816.130371
1217.283203	4874.208984
1215.477539	4863.293457
1213.671875	4759.996582
1211.866211	4874.563477
1210.059570	4848.495117
1208.251953	4770.081543
1206.444336	4812.926758
1204.636719	4819.944336
1202.828125	4747.104492
1201.018555	4795.426758
1199.208984	4719.878418
1197.399414	4769.557617
1195.588867	4727.062012
1193.777344	4732.712891
1191.966797	4716.366211
1190.154297	4723.390137
1188.341797	4689.192871
1186.529297	4723.690430
1184.715820	4722.466797
1182.902344	4800.868164
1181.087891	4794.134277
1179.273438	4728.400879
1177.458008	4728.546875
1175.642578	4646.406738
1173.826172	4719.239746
1172.009766	4700.196777
1170.193359	4603.052246
1168.375000	4721.049316
1166.557617	4652.711426
1164.739258	4717.230957
1162.919922	4696.841797
1161.100586	4655.934082
1159.281250	4668.407715
1157.460938	4624.791992
1155.639648	4553.847656
1153.818359	4648.367188
1151.997070	4592.487793
1150.174805	4533.904297
1148.351562	4629.720215
1146.528320	4537.012207
1144.705078	4582.257324
1142.880859	4515.544922
1141.056641	4482.983887
1139.231445	4637.352539
1137.405273	4513.389648
1135.579102	4587.215820
1133.752930	4464.692871
1131.925781	4505.782227
1130.098633	4601.352051
1128.270508	4500.714844
1126.442383	4514.524902
1124.613281	4506.543457
1122.784180	4489.037109
1120.954102	4453.849609
1119.124023	4507.108398
1117.292969	4588.900391
1115.461914	4506.122559
1113.629883	4523.980957
1111.797852	4424.954102
1109.964844	4525.701660
1108.131836	4516.373535
1106.298828	4398.413574
1104.464844	4416.274414
1102.629883	4374.406738
1100.794922	4404.476074
1098.958984	4461.659668
1097.123047	4309.960449
1095.286133	4349.512695
1093.449219	4386.332520
1091.612305	4351.311035
1089.774414	4371.853027
1087.935547	4397.801758
1086.096680	4343.846680
1084.257812	4394.155273
1082.417969	4428.196289
1080.577148	4263.327637
1078.736328	4258.157715
1076.895508	4373.344727
1075.053711	4304.605957
1073.210938	4377.820801
1071.368164	4405.054199
1069.525391	4306.640625
1067.681641	4313.619629
1065.836914	4340.847168
1063.992188	4386.958008
1062.147461	4277.854004
1060.301758	4172.854004
1058.456055	4268.875977
1056.609375	4381.028809
1054.761719	4210.027344
1052.914062	4195.450195
1051.066406	4276.542969
1049.217773	4201.339844
1047.369141	4294.507812
1045.519531	4337.813477
1043.668945	4268.035645
1041.818359	4253.463867
1039.967773	4310.197754
1038.116211	4245.859863
1036.264648	4254.161133
1034.412109	4211.378418
1032.559570	4234.465820
1030.706055	4309.937012
1028.851562	4314.182129
1026.998047	4186.830566
1025.142578	4165.598145
1023.287109	4216.849121
1021.431641	4164.759277
1019.575195	4209.275879
1017.718750	4260.474121
1015.861328	4253.995605
1014.003906	4181.843750
1012.145508	4166.008301
1010.287109	4187.690918
1008.427734	4225.432617
1006.567383	4251.104004
1004.708008	4176.368164
1002.846680	4234.155762
1000.985352	4223.680664
999.124023	4147.671875
997.261719	4170.653809
995.399414	4208.328125
993.536133	4201.878418
991.672852	4108.583496
989.808594	4265.127441
987.944336	4024.967529
986.079102	4198.806152
984.213867	4172.344727
982.347656	4171.249512
980.480469	4102.119629
978.614258	4095.708252
976.746094	4078.633057
974.877930	4097.556641
973.009766	4081.822021
971.140625	4104.730957
969.271484	4138.282715
967.401367	4058.633057
965.531250	4082.859863
963.660156	4064.485840
961.788086	4132.604980
959.916992	4154.131836
958.043945	4069.261230
956.170898	4159.925293
954.297852	3959.462891
952.423828	3982.339844
950.549805	4099.522461
948.674805	4066.570557
946.798828	4081.433594
944.923828	3964.878174
943.046875	3979.759521
941.169922	3987.999023
939.292969	4058.571533
937.415039	3972.640625
935.536133	3996.781982
933.657227	4039.464111
931.778320	4050.325195
929.898438	4005.547363
928.018555	3943.577637
926.137695	4007.409668
924.255859	4020.913086
922.374023	3977.511719
920.492188	3944.715576
918.609375	4032.283447
916.725586	3932.059814
914.841797	3908.552979
912.958008	3978.881104
911.073242	3927.630371
909.187500	3943.764648
907.301758	3934.802490
905.416016	4022.208496
903.528320	3976.277588
901.641602	3946.202881
899.753906	3859.426270
897.865234	3930.934570
895.976562	3931.215576
894.087891	3899.864990
892.197266	3938.364258
890.307617	3863.557617
888.416992	3880.974609
886.525391	3965.527344
884.633789	3947.369385
882.741211	3856.847168
880.848633	3924.236084
878.955078	3879.798584
877.061523	3862.995605
875.166992	3801.508301
873.272461	3734.796631
871.376953	3938.761963
869.481445	3870.735107
867.584961	3874.964355
865.688477	3852.935791
863.791016	3834.855957
861.893555	3824.657471
859.995117	3752.813477
858.096680	3844.927979
856.197266	3855.710205
854.296875	3802.263184
852.396484	3898.221436
850.496094	3760.951904
848.594727	3774.362793
846.693359	3846.683838
844.791016	3789.381104
842.887695	3826.327148
840.984375	3824.005859
839.081055	3864.846191
837.176758	3841.594238
835.271484	3789.595459
833.366211	3830.411377
831.460938	3731.407959
829.553711	3828.382080
827.647461	3810.391846
825.740234	3770.217773
823.832031	3771.828613
821.923828	3838.677734
820.014648	3751.566895
818.105469	3839.250732
816.195312	3808.246338
814.285156	3736.852783
812.374023	3717.618896
810.462891	3809.125000
808.550781	3782.067139
806.638672	3795.385986
804.725586	3688.943359
802.812500	3729.606689
800.898438	3794.967041
798.983398	3796.560791
797.069336	3743.541260
795.153320	3715.248291
793.237305	3731.156494
791.321289	3695.085693
789.404297	3716.185791
787.486328	3668.450195
785.568359	3672.668457
783.650391	3698.947998
781.730469	3738.188477
779.811523	3667.146973
777.891602	3616.892090
775.970703	3647.046631
774.049805	3643.484619
772.127930	3648.994873
770.206055	3602.683350
768.283203	3636.693359
766.360352	3481.647949
764.436523	3601.103760
762.512695	3606.615967
760.587891	3588.837646
758.663086	3591.762695
756.737305	3698.130127
754.810547	3556.240723
752.883789	3617.327393
750.957031	3559.515381
749.029297	3523.692383
747.100586	3622.186523
745.171875	3597.983887
743.243164	3598.316162
741.313477	3655.421143
739.382812	3629.937988
737.452148	3532.249756
735.520508	3532.597656
733.588867	3594.813477
731.656250	3569.372070
729.723633	3607.067627
727.790039	3685.955322
725.856445	3610.294434
723.921875	3530.812012
721.987305	3617.376953
720.051758	3571.383789
718.115234	3531.845703
716.178711	3491.042480
714.242188	3609.661621
712.304688	3534.159668
710.366211	3467.691162
708.427734	3586.220459
706.489258	3510.784180
704.549805	3432.820068
702.609375	3526.877441
700.668945	3461.781006
698.727539	3449.311523
696.786133	3445.825195
694.843750	3396.186279
692.901367	3504.225098
690.958008	3446.907959
689.013672	3470.326416
687.069336	3477.083008
685.125000	3414.696533
683.179688	3500.824219
681.233398	3471.735352
679.287109	3417.075195
677.340820	3363.723145
675.393555	3475.343750
673.445312	3483.362061
671.497070	3421.088135
669.547852	3494.274170
667.598633	3527.825439
665.648438	3501.342529
663.698242	3423.810059
661.747070	3403.749756
659.795898	3390.079346
657.843750	3423.611816
655.890625	3458.401123
653.937500	3448.550537
651.984375	3399.194336
650.030273	3367.702881
648.075195	3403.742432
646.120117	3401.556641
644.164062	3489.767090
642.208008	3431.554443
640.250977	3467.536621
638.293945	3371.195801
636.335938	3299.070557
634.377930	3307.086182
632.418945	3371.026611
630.458984	3335.811279
628.499023	3350.161621
626.539062	3365.774170
624.578125	3310.271240
622.616211	3344.926758
620.654297	3328.800049
618.691406	3294.919189
616.728516	3338.428467
614.764648	3276.665283
612.800781	3368.329102
610.835938	3279.975342
608.871094	3281.628418
606.905273	3301.013916
604.938477	3346.982422
602.971680	3272.654053
601.004883	3284.431396
599.037109	3184.852539
597.068359	3252.306396
595.099609	3283.048340
593.129883	3235.385986
591.160156	3207.972656
589.189453	3224.800781
587.218750	3235.303223
585.247070	3197.807129
583.275391	3178.007812
581.302734	3266.774414
579.329102	3149.797119
577.355469	3239.784424
575.380859	3175.849609
573.406250	3195.169434
571.431641	3311.543213
569.455078	3219.914307
567.479492	3240.465576
565.501953	3182.912598
563.524414	3160.648682
561.546875	3109.441895
559.568359	3122.448242
557.589844	3208.423096
555.609375	3200.011230
553.629883	3165.195557
551.649414	3151.770508
549.667969	3172.287354
547.686523	3151.327881
545.704102	3095.206787
543.721680	3140.837891
541.738281	3136.224365
539.753906	3181.819092
537.769531	3109.436279
535.785156	3113.615234
533.799805	3081.421631
531.813477	3050.498779
529.827148	3083.519043
527.839844	3111.508545
525.852539	3124.449219
523.864258	3178.713379
521.875977	3096.467773
519.886719	3074.351562
517.896484	3038.480957
515.906250	3060.179932
513.916016	3078.114502
511.924805	3027.266113
509.932617	3066.450684
507.940430	3070.620850
505.947266	3063.543945
503.954102	3051.474121
501.959961	3081.867432
499.964844	3033.595215
497.969727	3065.224365
495.974609	3043.184082
493.978516	2956.291748
491.981445	3029.067627
489.984375	3019.520996
487.986328	2958.878418
485.988281	3133.768066
483.989258	3002.122070
481.990234	2909.153076
479.990234	2935.755859
477.989258	2972.301514
475.988281	2976.474121
473.986328	2980.644043
471.984375	3015.903076
469.981445	2949.189453
467.978516	2928.502441
465.974609	2945.106201
463.970703	2959.216064
461.965820	2929.848389
459.959961	2793.714355
457.954102	2933.225586
455.948242	2974.623535
453.941406	2888.212646
451.933594	2915.956543
449.924805	2865.566895
447.916992	2916.854248
445.907227	2906.148438
443.897461	2953.679443
441.887695	2952.877930
439.876953	2896.353760
437.865234	2936.419922
435.853516	2908.395508
433.840820	2807.386230
431.828125	2802.913086
429.814453	2807.098389
427.799805	2827.352783
425.785156	2847.595703
423.770508	2839.408447
421.753906	2850.989746
419.738281	2825.516602
417.720703	2784.007080
415.704102	2773.376465
413.685547	2823.213379
411.666992	2807.642822
409.648438	2842.643799
407.628906	2888.721680
405.608398	2788.097168
403.587891	2820.609375
401.566406	2806.291260
399.544922	2819.075195
397.522461	2772.752197
395.499023	2826.157471
393.475586	2820.466064
391.452148	2764.337891
389.427734	2770.964844
387.402344	2773.899170
385.376953	2859.189941
383.350586	2774.846436
381.323242	2711.434082
379.296875	2795.443115
377.268555	2760.300781
375.240234	2762.003906
373.210938	2761.251221
371.181641	2805.893555
369.151367	2748.707275
367.121094	2765.125244
365.089844	2747.208984
363.057617	2688.859131
361.025391	2806.971924
358.993164	2748.636963
356.958984	2822.584717
354.925781	2810.796875
352.890625	2849.194092
350.855469	2853.311035
348.820312	2775.469971
346.784180	2822.404785
344.747070	2825.302002
342.709961	2879.530273
340.671875	2866.525391
338.633789	2898.724365
336.594727	2993.187012
334.555664	2960.626709
332.515625	2975.685303
330.474609	3005.377441
328.433594	2914.285400
326.391602	2953.734131
324.349609	2909.035400
322.306641	2949.682129
320.262695	2919.630615
318.218750	3030.907959
316.174805	2969.185303
314.129883	3056.036621
312.083984	2983.385254
310.038086	3066.533936
307.991211	2980.536865
305.943359	3055.126465
303.895508	3043.347656
301.846680	2986.599609
299.797852	3008.871338
297.748047	3026.270996
295.698242	3019.369629
293.647461	3074.396973
291.596680	3100.260498
289.544922	3090.916748
287.492188	3143.451660
285.439453	3125.610352
283.385742	3140.517090
281.332031	3162.688965
279.277344	3158.186523
277.221680	3239.707031
275.166016	3265.465820
273.109375	3242.774658
271.052734	3291.518555
268.995117	3355.968506
266.937500	3298.183105
264.878906	3380.738525
262.819336	3330.232422
260.759766	3380.092773
258.699219	3356.202637
256.638672	3370.988770
254.577148	3184.045654
252.515625	3208.531006
250.453125	3201.614014
248.389648	3116.250977
246.326172	3119.015137
244.261719	3037.339844
242.197266	2988.268799
240.131836	2940.429932
238.065430	2832.354492
235.999023	2912.306152
233.931641	2883.800293
231.864258	2883.007812
229.795898	2812.387207
227.727539	2839.297119
225.658203	2739.848389
223.587891	2819.691895
221.517578	2778.027832
219.446289	2762.836426
217.375000	2736.835693
215.302734	2720.461670
213.229492	2756.953125
211.156250	2740.582031
209.083008	2733.824951
207.007812	2728.271240
204.932617	2755.119385
202.857422	2708.774902
200.781250	2704.431152
198.704102	2698.890625
196.626953	2643.009766
194.548828	2723.767090
192.470703	2693.067139
190.391602	2674.360352
188.311523	2659.255615
186.231445	2718.372559
184.151367	2653.003418
182.069336	2739.604492
179.987305	2722.105225
177.905273	2709.397949
175.822266	2676.376709
173.738281	2706.708984
171.654297	2727.466797
169.569336	2675.357178
167.484375	2693.723389
165.398438	2751.471436
163.311523	2738.778320
161.224609	2772.620605
159.136719	2801.673096
157.048828	2866.480469
154.959961	2850.192627
152.870117	2920.908691
150.780273	2870.063721
148.689453	3015.771729
146.598633	3012.557373
144.506836	2952.204834
142.414062	2969.240234
140.321289	3098.102295
138.228516	3125.791992
136.133789	3109.469971
134.039062	3078.891357
131.944336	3122.012207
129.848633	3141.346680
127.751953	3129.788086
125.655273	3259.541504
123.557617	3206.406738
121.459961	3255.364990
119.361328	3300.736328
117.261719	3264.239014
115.162109	3396.145752
113.061523	3467.519775
110.959961	3448.782715
108.858398	3486.927002
106.756836	3599.672852
104.654297	3718.276611
102.550781	3783.541748
100.446289	3749.355469
98.341797	3911.595703
